File: Dati/201104/CV_LTO_Al_grafite_01_1mVs_11_CV_C03.mpt
EC-Lab ASCII FILE
Nb header lines : 57

Cyclic Voltammetry

Run on channel : 3 (SN 6807)
User :
Electrode connection : standard
Ewe ctrl range : min = 0,00 V, max = 5,00 V
Ewe,I filtering : 50 kHz
Safety Limits :
	Do not start on E overload
Channel : Grounded
Acquisition started on : 11/04/2020 18:19:46
Saved on :
	File : CV_LTO_Al_grafite_01_1mVs_11_CV_C03.mpr
	Directory : C:\Users\labsuperfici\Desktop\Biologic\Users\Prisca Viviani\201104\
	Host : 10.78.33.0
Device : VSP-300 (SN 0638)
Address : USB
EC-Lab for windows v11.31 (software)
Internet server v11.30 (firmware)
Command interpretor v11.31 (firmware)
Electrode material :
Initial state :
Electrolyte :
Comments :
Cable : standard
Reference electrode : SCE Saturated Calomel Electrode (0,241 V)
Electrode surface area : 0,001 cm²
Characteristic mass : 0,001 g
Equivalent Weight : 0,000 g/eq.
Density : 0,000 g/cm3
Cycle Definition : Charge/Discharge alternance
Ei (V)              0,000
vs.                 Eoc
dE/dt               1,000
dE/dt unit          mV/s
E1 (V)              1,000
vs.                 Ref
Step percent        50
N                   10
E range min (V)     0,000
E range max (V)     5,000
I Range             Auto
I Range min         Unset
I Range max         Unset
I Range init        Unset
Bandwidth           8
E2 (V)              2,700
vs.                 Ref
nc cycles           1
Reverse Scan        1
Ef (V)              0,000
vs.                 Eoc

mode	ox/red	error	control changes	counter inc.	time/s	control/V	Ewe/V	<I>/mA	cycle number	(Q-Qo)/C	I Range	P/W
2	1	0	0	0	1,995247708186833E+005	2,7417748E+000	2,7411461E+000	2,323091775178909E-002	1,000000000000000E+000	0,0000000E+000	41	6,3679341E-005
2	1	0	1	0	1,996243801342696E+005	2,6421645E+000	2,6415284E+000	4,239393806798560E-004	1,000000000000000E+000	5,3806201E-004	43	1,1198479E-006
2	0	0	1	0	1,997243393499092E+005	2,5422053E+000	2,5416856E+000	-3,352184811305177E-003	1,000000000000000E+000	3,6439745E-004	42	-8,5202000E-006
2	0	0	1	0	1,998242985655488E+005	2,4422460E+000	2,4417341E+000	-5,686847478170219E-003	1,000000000000000E+000	-1,0093836E-004	42	-1,3885769E-005
2	0	0	1	0	1,999242578811892E+005	2,3422868E+000	2,3418095E+000	-7,544516016097937E-003	1,000000000000000E+000	-7,7034882E-004	42	-1,7667819E-005
2	0	0	1	0	2,000242169968293E+005	2,2423277E+000	2,2419021E+000	-9,680575677395227E-003	1,000000000000000E+000	-1,6305457E-003	42	-2,1702903E-005
2	0	0	1	0	2,001241763124685E+005	2,1423683E+000	2,1418135E+000	-1,324416331298908E-002	1,000000000000000E+000	-2,7696122E-003	41	-2,8366529E-005
2	0	0	1	0	2,002241355281081E+005	2,0424092E+000	2,0418518E+000	-1,893583086550946E-002	1,000000000000000E+000	-4,3650484E-003	41	-3,8664159E-005
2	0	0	1	0	2,003240948437477E+005	1,9424502E+000	1,9418701E+000	-2,732003752827122E-002	1,000000000000000E+000	-6,6592311E-003	41	-5,3051965E-005
2	0	0	1	0	2,004240540593881E+005	1,8424907E+000	1,8419491E+000	-3,892938849386890E-002	1,000000000000000E+000	-9,9498341E-003	41	-7,1705952E-005
2	0	0	1	0	2,005240132750282E+005	1,7425317E+000	1,7420017E+000	-5,421782480561688E-002	1,000000000000000E+000	-1,4577358E-002	41	-9,4447540E-005
2	0	0	1	0	2,006239724906676E+005	1,6425723E+000	1,6421008E+000	-7,538933196411068E-002	1,000000000000000E+000	-2,0988146E-002	41	-1,2379688E-004
2	0	0	1	0	2,007239318063073E+005	1,5426129E+000	1,5420316E+000	-1,176139794228824E-001	1,000000000000000E+000	-3,0333638E-002	40	-1,8136448E-004
2	0	0	1	0	2,008238909219470E+005	1,4426538E+000	1,4421024E+000	-2,138201591578473E-001	1,000000000000000E+000	-4,6573095E-002	40	-3,0835057E-004
2	0	0	1	0	2,009238502375865E+005	1,3426945E+000	1,3421123E+000	-2,594838222928120E-001	1,000000000000000E+000	-7,1247898E-002	40	-3,4825644E-004
2	0	0	1	0	2,010238094532269E+005	1,2427353E+000	1,2421463E+000	-2,147009471846166E-001	1,000000000000000E+000	-9,5200829E-002	40	-2,6668998E-004
2	0	0	1	0	2,011237686688665E+005	1,1427761E+000	1,1421809E+000	-1,745799148860512E-001	1,000000000000000E+000	-1,1449322E-001	40	-1,9940185E-004
2	0	0	1	0	2,012237278845063E+005	1,0428169E+000	1,0422320E+000	-1,542879673576387E-001	1,000000000000000E+000	-1,3078532E-001	40	-1,6080386E-004
2	0	0	1	0	2,013220884998962E+005	1,0555117E+000	1,0549246E+000	-5,986428236176827E-002	1,000000000000000E+000	-1,4258198E-001	40	-6,3152307E-005
2	0	0	1	0	2,014220477155354E+005	1,1554708E+000	1,1548756E+000	-8,396819011972964E-003	1,000000000000000E+000	-1,4550845E-001	41	-9,6972817E-006
2	1	0	1	0	2,015220071311751E+005	1,2554301E+000	1,2548229E+000	1,194986664520820E-002	1,000000000000000E+000	-1,4520416E-001	41	1,4994966E-005
2	1	0	1	0	2,016219663468157E+005	1,3553892E+000	1,3547232E+000	2,394476764488018E-002	1,000000000000000E+000	-1,4336821E-001	41	3,2438533E-005
2	1	0	1	0	2,017219255624551E+005	1,4553485E+000	1,4546824E+000	3,436543472993797E-002	1,000000000000000E+000	-1,4045100E-001	41	4,9990791E-005
2	1	0	1	0	2,018218848780952E+005	1,5553079E+000	1,5546319E+000	4,847529758137337E-002	1,000000000000000E+000	-1,3637125E-001	41	7,5361248E-005
2	1	0	1	0	2,019218441937345E+005	1,6552670E+000	1,6546513E+000	1,440626615748406E-001	1,000000000000000E+000	-1,2827545E-001	40	2,3837347E-004
2	1	0	1	0	2,020218035093741E+005	1,7552263E+000	1,7546252E+000	2,654309927154395E-001	1,000000000000000E+000	-1,0712659E-001	40	4,6573192E-004
2	1	0	1	0	2,021217628250148E+005	1,8551855E+000	1,8545555E+000	2,831817849487599E-001	1,000000000000000E+000	-7,8680106E-002	40	5,2517635E-004
2	1	0	1	0	2,022217220406539E+005	1,9551446E+000	1,9545612E+000	2,146693851769435E-001	1,000000000000000E+000	-5,3511076E-002	40	4,1958445E-004
2	1	0	1	0	2,023216813562941E+005	2,0551038E+000	2,0545132E+000	1,423815782820322E-001	1,000000000000000E+000	-3,5792414E-002	40	2,9252484E-004
2	1	0	1	0	2,024216407719337E+005	2,1550632E+000	2,1544795E+000	9,092182514496283E-002	1,000000000000000E+000	-2,4315180E-002	40	1,9588921E-004
2	1	0	1	0	2,025215999875730E+005	2,2550223E+000	2,2544427E+000	5,901606424829714E-002	1,000000000000000E+000	-1,6949859E-002	40	1,3304834E-004
2	1	0	1	0	2,026215595032137E+005	2,3549817E+000	2,3543646E+000	4,050350031011218E-002	1,000000000000000E+000	-1,2056876E-002	41	9,5360010E-005
2	1	0	1	0	2,027215189188530E+005	2,4549408E+000	2,4543087E+000	3,075100205006398E-002	1,000000000000000E+000	-8,5473368E-003	41	7,5472453E-005
2	1	0	1	0	2,028214781344933E+005	2,5548999E+000	2,5542834E+000	2,595247350918263E-002	1,000000000000000E+000	-5,7290355E-003	41	6,6289969E-005
2	1	0	1	0	2,029214374501329E+005	2,6548591E+000	2,6543095E+000	2,316187862559786E-002	1,000000000000000E+000	-3,2863962E-003	41	6,1478793E-005
2	1	0	1	1	2,030200974655694E+005	2,6464627E+000	2,6458490E+000	4,600455226126024E-003	2,000000000000000E+000	-1,7504069E-003	42	1,2172110E-005
2	0	0	1	1	2,031200566812097E+005	2,5465033E+000	2,5459762E+000	-1,667095830510546E-003	2,000000000000000E+000	-1,6639640E-003	42	-4,2443862E-006
2	0	0	1	1	2,032200158968488E+005	2,4465444E+000	2,4460340E+000	-4,742625405140061E-003	2,000000000000000E+000	-2,0043468E-003	42	-1,1600623E-005
2	0	0	1	1	2,033199752124893E+005	2,3465850E+000	2,3461168E+000	-6,884894775482245E-003	2,000000000000000E+000	-2,5964181E-003	42	-1,6152768E-005
2	0	0	1	1	2,034199343281288E+005	2,2466259E+000	2,2461765E+000	-9,145035139101115E-003	2,000000000000000E+000	-3,3981726E-003	42	-2,0541363E-005
2	0	0	1	1	2,035198936437683E+005	2,1466665E+000	2,1461279E+000	-1,264205843696529E-002	2,000000000000000E+000	-4,4807210E-003	41	-2,7131475E-005
2	0	0	1	1	2,036198528594086E+005	2,0467074E+000	2,0461609E+000	-1,824846889795595E-002	2,000000000000000E+000	-6,0133371E-003	41	-3,7339305E-005
2	0	0	1	1	2,037198121750482E+005	1,9467483E+000	1,9461790E+000	-2,650141563229264E-002	2,000000000000000E+000	-8,2330480E-003	41	-5,1576499E-005
2	0	0	1	1	2,038197713906877E+005	1,8467890E+000	1,8462565E+000	-3,792661241001727E-002	2,000000000000000E+000	-1,1432147E-002	41	-7,0022252E-005
2	0	0	1	1	2,039197305063277E+005	1,7468297E+000	1,7463092E+000	-5,296704260852159E-002	2,000000000000000E+000	-1,5948987E-002	41	-9,2496834E-005
2	0	0	1	1	2,040196898219672E+005	1,6468706E+000	1,6463795E+000	-7,369157384785541E-002	2,000000000000000E+000	-2,2216326E-002	41	-1,2132429E-004
2	0	0	1	1	2,041196491376073E+005	1,5469112E+000	1,5463533E+000	-1,141274333579495E-001	2,000000000000000E+000	-3,1317316E-002	40	-1,7648134E-004
2	0	0	1	1	2,042196082532475E+005	1,4469521E+000	1,4463817E+000	-2,079895352146219E-001	2,000000000000000E+000	-4,7029600E-002	40	-3,0083227E-004
2	0	0	1	1	2,043195675688870E+005	1,3469929E+000	1,3464527E+000	-2,587961209944019E-001	2,000000000000000E+000	-7,1351297E-002	40	-3,4845673E-004
2	0	0	1	1	2,044195266845264E+005	1,2470336E+000	1,2464648E+000	-2,159842873626125E-001	2,000000000000000E+000	-9,5395207E-002	40	-2,6921683E-004
2	0	0	1	1	2,045194860001659E+005	1,1470742E+000	1,1464792E+000	-1,748664451779498E-001	2,000000000000000E+000	-1,1476821E-001	40	-2,0048075E-004
2	0	0	1	1	2,046194451158065E+005	1,0471152E+000	1,0465176E+000	-1,537571216216442E-001	2,000000000000000E+000	-1,3104331E-001	40	-1,6090953E-004
2	0	0	1	1	2,047181057312430E+005	1,0515137E+000	1,0509263E+000	-6,312458077027350E-002	2,000000000000000E+000	-1,4317623E-001	40	-6,6339286E-005
2	0	0	1	1	2,048180649468822E+005	1,1514728E+000	1,1508996E+000	-9,415356189332202E-003	2,000000000000000E+000	-1,4628543E-001	41	-1,0836130E-005
2	1	0	1	1	2,049180242625223E+005	1,2514318E+000	1,2508477E+000	1,145198117879394E-002	2,000000000000000E+000	-1,4605179E-001	41	1,4324684E-005
2	1	0	1	1	2,050179834781626E+005	1,3513910E+000	1,3507341E+000	2,346997815987673E-002	2,000000000000000E+000	-1,4426370E-001	41	3,1701700E-005
2	1	0	1	1	2,051179426938016E+005	1,4513501E+000	1,4507074E+000	3,376399337190691E-002	2,000000000000000E+000	-1,4139926E-001	41	4,8981678E-005
2	1	0	1	1	2,052179021094418E+005	1,5513093E+000	1,5506566E+000	4,737856237248488E-002	2,000000000000000E+000	-1,3739638E-001	41	7,3467876E-005
2	1	0	1	1	2,053178613250811E+005	1,6512686E+000	1,6506404E+000	1,362798103816583E-001	2,000000000000000E+000	-1,2973927E-001	40	2,2494896E-004
2	1	0	1	1	2,054178207407221E+005	1,7512279E+000	1,7505736E+000	2,607476376521132E-001	2,000000000000000E+000	-1,0925040E-001	40	4,5645793E-004
2	1	0	1	1	2,055177799563616E+005	1,8511872E+000	1,8505694E+000	2,846259309327959E-001	2,000000000000000E+000	-8,0965757E-002	40	5,2672002E-004
2	1	0	1	1	2,056177391720004E+005	1,9511464E+000	1,9505446E+000	2,181593187542311E-001	2,000000000000000E+000	-5,5502482E-002	40	4,2552949E-004
2	1	0	1	1	2,057176984876413E+005	2,0511055E+000	2,0505049E+000	1,450805816282945E-001	2,000000000000000E+000	-3,7468523E-002	40	2,9748844E-004
2	1	0	1	1	2,058176580032801E+005	2,1510646E+000	2,1504955E+000	9,252460739634327E-002	2,000000000000000E+000	-2,5778206E-002	40	1,9897375E-004
2	1	0	1	1	2,059176172189210E+005	2,2510240E+000	2,2504406E+000	5,986269224446775E-002	2,000000000000000E+000	-1,8294862E-002	40	1,3471743E-004
2	1	0	1	1	2,060175766345607E+005	2,3509831E+000	2,3503764E+000	4,090940839398716E-002	2,000000000000000E+000	-1,3341882E-002	41	9,6152507E-005
2	1	0	1	1	2,061175358502008E+005	2,4509420E+000	2,4503095E+000	3,087511468611480E-002	2,000000000000000E+000	-9,8076826E-003	41	7,5653588E-005
2	1	0	1	1	2,062174954658397E+005	2,5509017E+000	2,5503178E+000	2,599057136399111E-002	2,000000000000000E+000	-6,9828006E-003	41	6,6284214E-005
2	1	0	1	1	2,063174544814790E+005	2,6508603E+000	2,6502774E+000	2,314736346994681E-002	2,000000000000000E+000	-4,5397058E-003	41	6,1346931E-005
2	1	0	1	0	2,064082732956894E+005	2,7417748E+000	2,7412376E+000	2,330406528452167E-002	2,000000000000000E+000	-2,4590867E-003	41	6,3881984E-005