File: Dati/201104/CV_LTO_Al_grafite_01_1mVs_06_CV_C03.mpt
EC-Lab ASCII FILE
Nb header lines : 57

Cyclic Voltammetry

Run on channel : 3 (SN 6807)
User :
Electrode connection : standard
Ewe ctrl range : min = 0,00 V, max = 5,00 V
Ewe,I filtering : 50 kHz
Safety Limits :
	Do not start on E overload
Channel : Grounded
Acquisition started on : 11/04/2020 18:19:46
Saved on :
	File : CV_LTO_Al_grafite_01_1mVs_06_CV_C03.mpr
	Directory : C:\Users\labsuperfici\Desktop\Biologic\Users\Prisca Viviani\201104\
	Host : 10.78.33.0
Device : VSP-300 (SN 0638)
Address : USB
EC-Lab for windows v11.31 (software)
Internet server v11.30 (firmware)
Command interpretor v11.31 (firmware)
Electrode material :
Initial state :
Electrolyte :
Comments :
Cable : standard
Reference electrode : SCE Saturated Calomel Electrode (0,241 V)
Electrode surface area : 0,001 cm²
Characteristic mass : 0,001 g
Equivalent Weight : 0,000 g/eq.
Density : 0,000 g/cm3
Cycle Definition : Charge/Discharge alternance
Ei (V)              0,000
vs.                 Eoc
dE/dt               0,500
dE/dt unit          mV/s
E1 (V)              1,000
vs.                 Ref
Step percent        50
N                   10
E range min (V)     0,000
E range max (V)     5,000
I Range             Auto
I Range min         Unset
I Range max         Unset
I Range init        Unset
Bandwidth           8
E2 (V)              2,700
vs.                 Ref
nc cycles           1
Reverse Scan        1
Ef (V)              0,000
vs.                 Eoc

mode	ox/red	error	control changes	counter inc.	time/s	control/V	Ewe/V	<I>/mA	cycle number	(Q-Qo)/C	I Range	P/W
2	1	0	0	0	1,481978205879810E+005	2,7417748E+000	2,7411537E+000	1,281641423702240E-002	1,000000000000000E+000	0,0000000E+000	41	3,5131761E-005
2	0	0	1	0	1,483968395191194E+005	2,6422644E+000	2,6416557E+000	-1,409525178764832E-004	1,000000000000000E+000	5,3444173E-004	43	-3,7234801E-007
2	0	0	1	0	1,485967579504000E+005	2,5423052E+000	2,5417140E+000	-2,185186745773671E-003	1,000000000000000E+000	2,5518538E-004	42	-5,5541195E-006
2	0	0	1	0	1,487966762816804E+005	2,4423459E+000	2,4417624E+000	-3,375220252635966E-003	1,000000000000000E+000	-3,2662117E-004	42	-8,2414863E-006
2	0	0	1	0	1,489965949129593E+005	2,3423867E+000	2,3418298E+000	-4,370790223517038E-003	1,000000000000000E+000	-1,1191061E-003	42	-1,0235647E-005
2	0	0	1	0	1,491965131442375E+005	2,2424276E+000	2,2418573E+000	-5,670741103032055E-003	1,000000000000000E+000	-2,1303969E-003	42	-1,2712992E-005
2	0	0	1	0	1,493964318755171E+005	2,1424685E+000	2,1419234E+000	-7,821800251076351E-003	1,000000000000000E+000	-3,4776172E-003	42	-1,6753696E-005
2	0	0	1	0	1,495963501067981E+005	2,0425091E+000	2,0419011E+000	-1,138916103238305E-002	1,000000000000000E+000	-5,3933025E-003	41	-2,3255541E-005
2	0	0	1	0	1,497962687380780E+005	1,9425501E+000	1,9418881E+000	-1,684306049098591E-002	1,000000000000000E+000	-8,2023982E-003	41	-3,2707339E-005
2	0	0	1	0	1,499961872693566E+005	1,8425905E+000	1,8420069E+000	-2,415869432118489E-002	1,000000000000000E+000	-1,2292060E-002	41	-4,4500481E-005
2	0	0	1	0	1,501961057006354E+005	1,7426312E+000	1,7419920E+000	-3,389118926133888E-002	1,000000000000000E+000	-1,8067844E-002	41	-5,9038179E-005
2	0	0	1	0	1,503960242319163E+005	1,6426722E+000	1,6420640E+000	-4,963759517654975E-002	1,000000000000000E+000	-2,6242588E-002	41	-8,1508108E-005
2	0	0	1	0	1,505959425631957E+005	1,5427129E+000	1,5421975E+000	-9,933637717897315E-002	1,000000000000000E+000	-4,0011968E-002	41	-1,5319631E-004
2	0	0	1	0	1,507958609944759E+005	1,4427537E+000	1,4421450E+000	-2,021754672713809E-001	1,000000000000000E+000	-7,2091103E-002	40	-2,9156634E-004
2	0	0	1	0	1,509957795257543E+005	1,3427945E+000	1,3421454E+000	-1,420606789096885E-001	1,000000000000000E+000	-1,0747997E-001	40	-1,9066609E-004
2	0	0	1	0	1,511956979570333E+005	1,2428354E+000	1,2421759E+000	-9,873481169651599E-002	1,000000000000000E+000	-1,3104264E-001	40	-1,2264600E-004
2	0	0	1	0	1,513956163883135E+005	1,1428761E+000	1,1422267E+000	-7,901103076724755E-002	1,000000000000000E+000	-1,4853185E-001	40	-9,0248512E-005
2	0	0	1	0	1,515955347195938E+005	1,0429170E+000	1,0422503E+000	-7,487904351075575E-002	1,000000000000000E+000	-1,6370870E-001	40	-7,8042707E-005
2	0	0	1	0	1,517924551504049E+005	1,0555118E+000	1,0548385E+000	-9,510867697060804E-003	1,000000000000000E+000	-1,7363648E-001	41	-1,0032430E-005
2	1	0	1	0	1,519923738816832E+005	1,1554710E+000	1,1547939E+000	1,154320416312912E-002	1,000000000000000E+000	-1,7290704E-001	41	1,3330021E-005
2	1	0	1	0	1,521922926129624E+005	1,2554302E+000	1,2547110E+000	1,827788365785031E-002	1,000000000000000E+000	-1,6982622E-001	41	2,2933462E-005
2	1	0	1	0	1,523922112442423E+005	1,3553894E+000	1,3546706E+000	2,265369575655479E-002	1,000000000000000E+000	-1,6570137E-001	41	3,0688298E-005
2	1	0	1	0	1,525921297755232E+005	1,4553486E+000	1,4546587E+000	2,751326571218866E-002	1,000000000000000E+000	-1,6068572E-001	41	4,0022413E-005
2	1	0	1	0	1,527920485068029E+005	1,5553077E+000	1,5546124E+000	3,682705008927756E-002	1,000000000000000E+000	-1,5444216E-001	41	5,7251789E-005
2	1	0	1	0	1,529919672380814E+005	1,6552672E+000	1,6545659E+000	1,818904879505783E-001	1,000000000000000E+000	-1,3533881E-001	40	3,0094982E-004
2	1	0	1	0	1,531918859693604E+005	1,7552261E+000	1,7545804E+000	2,062163283906755E-001	1,000000000000000E+000	-9,2568636E-002	40	3,6182313E-004
2	1	0	1	0	1,533918047006410E+005	1,8551855E+000	1,8545135E+000	1,214712940274238E-001	1,000000000000000E+000	-6,0073085E-002	40	2,2527015E-004
2	1	0	1	0	1,535917234319216E+005	1,9551448E+000	1,9544947E+000	6,716776068851826E-002	1,000000000000000E+000	-4,1812148E-002	40	1,3127903E-004
2	1	0	1	0	1,537918421632312E+005	2,0552037E+000	2,0545382E+000	4,083021638738538E-002	1,000000000000000E+000	-3,1299353E-002	41	8,3887244E-005
2	1	0	1	0	1,539917610945106E+005	2,1551633E+000	2,1544788E+000	2,689329253940664E-002	1,000000000000000E+000	-2,4648827E-002	41	5,7941030E-005
2	1	0	1	0	1,541916800257908E+005	2,2551224E+000	2,2544582E+000	1,938487506170944E-002	1,000000000000000E+000	-2,0086579E-002	41	4,3702392E-005
2	1	0	1	0	1,543915989570711E+005	2,3550818E+000	2,3544328E+000	1,581403587254537E-002	1,000000000000000E+000	-1,6600624E-002	41	3,7233087E-005
2	1	0	1	0	1,545915178883513E+005	2,4550407E+000	2,4543874E+000	1,457358839925496E-002	1,000000000000000E+000	-1,3573490E-002	41	3,5769233E-005
2	1	0	1	0	1,547914368196295E+005	2,5550001E+000	2,5543475E+000	1,377444049686274E-002	1,000000000000000E+000	-1,0708003E-002	41	3,5184708E-005
2	1	0	1	0	1,549913557509086E+005	2,6549592E+000	2,6543455E+000	1,341300385929788E-002	1,000000000000000E+000	-7,9947682E-003	41	3,5602745E-005
2	1	0	1	1	1,551884754817523E+005	2,6464627E+000	2,6458240E+000	2,408018294593688E-003	2,000000000000000E+000	-6,2139113E-003	42	6,3711923E-006
2	0	0	1	1	1,553883940130323E+005	2,5465033E+000	2,5458949E+000	-1,349941651044871E-003	2,000000000000000E+000	-6,1979610E-003	42	-3,4368095E-006
2	0	0	1	1	1,555883125443102E+005	2,4465444E+000	2,4459383E+000	-2,941227108416336E-003	2,000000000000000E+000	-6,6597587E-003	42	-7,1940603E-006
2	0	0	1	1	1,557882309755890E+005	2,3465850E+000	2,3460317E+000	-4,046312647175997E-003	2,000000000000000E+000	-7,3777405E-003	42	-9,4927773E-006
2	0	0	1	1	1,559881494068694E+005	2,2466259E+000	2,2460382E+000	-5,334972066146831E-003	2,000000000000000E+000	-8,3250999E-003	42	-1,1982551E-005
2	0	0	1	1	1,561880678381501E+005	2,1466665E+000	2,1461258E+000	-7,478756047986174E-003	2,000000000000000E+000	-9,6092969E-003	42	-1,6050351E-005
2	0	0	1	1	1,563879862694303E+005	2,0467074E+000	2,0460594E+000	-1,106040352913074E-002	2,000000000000000E+000	-1,1458937E-002	41	-2,2630242E-005
2	0	0	1	1	1,565879049007078E+005	1,9467480E+000	1,9460887E+000	-1,649538388959576E-002	2,000000000000000E+000	-1,4197811E-002	41	-3,2101481E-005
2	0	0	1	1	1,567878233319870E+005	1,8467888E+000	1,8461497E+000	-2,377112066638712E-002	2,000000000000000E+000	-1,8209197E-002	41	-4,3885047E-005
2	0	0	1	1	1,569877416632678E+005	1,7468297E+000	1,7462050E+000	-3,335639770643423E-002	2,000000000000000E+000	-2,3898060E-002	41	-5,8247108E-005
2	0	0	1	1	1,571876602945477E+005	1,6468704E+000	1,6462590E+000	-4,894690399906221E-002	2,000000000000000E+000	-3,1959288E-002	41	-8,0579281E-005
2	0	0	1	1	1,573875787258269E+005	1,5469112E+000	1,5463824E+000	-9,758613153699391E-002	2,000000000000000E+000	-4,5526315E-002	41	-1,5090549E-004
2	0	0	1	1	1,575874971571050E+005	1,4469521E+000	1,4463195E+000	-2,061544528049726E-001	2,000000000000000E+000	-7,7654406E-002	40	-2,9816519E-004
2	0	0	1	1	1,577874155883850E+005	1,3469927E+000	1,3463694E+000	-1,408753731141879E-001	2,000000000000000E+000	-1,1357242E-001	40	-1,8967029E-004
2	0	0	1	1	1,579873339196658E+005	1,2470337E+000	1,2464207E+000	-9,320732685666955E-002	2,000000000000000E+000	-1,3635097E-001	40	-1,1617554E-004
2	0	0	1	1	1,581872523509460E+005	1,1470743E+000	1,1464369E+000	-7,359449163996534E-002	2,000000000000000E+000	-1,5272874E-001	40	-8,4371444E-005
2	0	0	1	1	1,583871708822241E+005	1,0471151E+000	1,0464941E+000	-6,927128046397579E-002	2,000000000000000E+000	-1,6681343E-001	40	-7,2491988E-005
2	0	0	1	1	1,585844912130982E+005	1,0515134E+000	1,0509099E+000	-1,033130688404243E-002	2,000000000000000E+000	-1,7653653E-001	41	-1,0857272E-005
2	1	0	1	1	1,587844099443778E+005	1,1514727E+000	1,1508441E+000	1,092528346020513E-002	2,000000000000000E+000	-1,7591698E-001	41	1,2573298E-005
2	1	0	1	1	1,589843285756570E+005	1,2514317E+000	1,2507913E+000	1,730419873540492E-002	2,000000000000000E+000	-1,7299803E-001	41	2,1643942E-005
2	1	0	1	1	1,591842472069357E+005	1,3513911E+000	1,3507694E+000	2,130637697820321E-002	2,000000000000000E+000	-1,6912006E-001	41	2,8780001E-005
2	1	0	1	1	1,593841658382155E+005	1,4513501E+000	1,4506989E+000	2,568091741673156E-002	2,000000000000000E+000	-1,6443232E-001	41	3,7255279E-005
2	1	0	1	1	1,595840845694961E+005	1,5513095E+000	1,5506589E+000	3,324326098100330E-002	2,000000000000000E+000	-1,5864989E-001	41	5,1548959E-005
2	1	0	1	1	1,597840032007769E+005	1,6512687E+000	1,6506281E+000	1,331623311440371E-001	2,000000000000000E+000	-1,4480720E-001	40	2,1980148E-004
2	1	0	1	1	1,599839220320550E+005	1,7512279E+000	1,7506188E+000	1,927563872817146E-001	2,000000000000000E+000	-1,0972996E-001	40	3,3744297E-004
2	1	0	1	1	1,601838407633337E+005	1,8511872E+000	1,8505905E+000	1,379780450364692E-001	2,000000000000000E+000	-7,5978361E-002	40	2,5534086E-004
2	1	0	1	1	1,603837592946137E+005	1,9511464E+000	1,9505712E+000	8,400725918952667E-002	2,000000000000000E+000	-5,4146521E-002	40	1,6386213E-004
2	1	0	1	1	1,605836780258948E+005	2,0511055E+000	2,0505254E+000	5,222515681933637E-002	2,000000000000000E+000	-4,0819399E-002	40	1,0708901E-004
2	1	0	1	1	1,607835971571747E+005	2,1510649E+000	2,1504707E+000	3,407776280001307E-002	2,000000000000000E+000	-3,2345511E-002	41	7,3283234E-005
2	1	0	1	1	1,609835158884532E+005	2,2510240E+000	2,2504356E+000	2,355723869605217E-002	2,000000000000000E+000	-2,6666319E-002	41	5,3014050E-005
2	1	0	1	1	1,611834350197320E+005	2,3509831E+000	2,3503947E+000	1,785674391570763E-002	2,000000000000000E+000	-2,2575300E-002	41	4,1970397E-005
2	1	0	1	1	1,613833537510117E+005	2,4509425E+000	2,4503691E+000	1,526860904076102E-002	2,000000000000000E+000	-1,9288188E-002	41	3,7413727E-005
2	1	0	1	1	1,615832728822920E+005	2,5509017E+000	2,5503583E+000	1,402481864351665E-002	2,000000000000000E+000	-1,6346838E-002	41	3,5768313E-005
2	1	0	1	1	1,617831916135727E+005	2,6508608E+000	2,6503386E+000	1,304401237610719E-002	2,000000000000000E+000	-1,3649724E-002	41	3,4571050E-005
2	1	0	0	0	1,619648285419908E+005	2,7417748E+000	2,7412033E+000	1,363681019891211E-002	2,000000000000000E+000	-1,1260574E-002	41	3,7381269E-005