File: Dati/201104/CV_LTO_Al_grafite_01_1mVs_10_CV_C03.mpt
EC-Lab ASCII FILE
Nb header lines : 57

Cyclic Voltammetry

Run on channel : 3 (SN 6807)
User :
Electrode connection : standard
Ewe ctrl range : min = 0,00 V, max = 5,00 V
Ewe,I filtering : 50 kHz
Safety Limits :
	Do not start on E overload
Channel : Grounded
Acquisition started on : 11/04/2020 18:19:46
Saved on :
	File : CV_LTO_Al_grafite_01_1mVs_10_CV_C03.mpr
	Directory : C:\Users\labsuperfici\Desktop\Biologic\Users\Prisca Viviani\201104\
	Host : 10.78.33.0
Device : VSP-300 (SN 0638)
Address : USB
EC-Lab for windows v11.31 (software)
Internet server v11.30 (firmware)
Command interpretor v11.31 (firmware)
Electrode material :
Initial state :
Electrolyte :
Comments :
Cable : standard
Reference electrode : SCE Saturated Calomel Electrode (0,241 V)
Electrode surface area : 0,001 cm²
Characteristic mass : 0,001 g
Equivalent Weight : 0,000 g/eq.
Density : 0,000 g/cm3
Cycle Definition : Charge/Discharge alternance
Ei (V)              0,000
vs.                 Eoc
dE/dt               0,900
dE/dt unit          mV/s
E1 (V)              1,000
vs.                 Ref
Step percent        50
N                   10
E range min (V)     0,000
E range max (V)     5,000
I Range             Auto
I Range min         Unset
I Range max         Unset
I Range init        Unset
Bandwidth           8
E2 (V)              2,700
vs.                 Ref
nc cycles           1
Reverse Scan        1
Ef (V)              0,000
vs.                 Eoc

mode	ox/red	error	control changes	counter inc.	time/s	control/V	Ewe/V	<I>/mA	cycle number	(Q-Qo)/C	I Range	P/W
2	1	0	0	0	1,918762332219813E+005	2,7417748E+000	2,7411346E+000	2,098818123340607E-002	1,000000000000000E+000	0,0000000E+000	41	5,7531430E-005
2	1	0	1	0	1,919867993392800E+005	2,6422646E+000	2,6416636E+000	2,968236971138084E-004	1,000000000000000E+000	5,3264800E-004	43	7,8410835E-007
2	0	0	1	0	1,920978650566572E+005	2,5423052E+000	2,5417812E+000	-3,146716329142311E-003	1,000000000000000E+000	3,4319839E-004	42	-7,9982647E-006
2	0	0	1	0	1,922089307740363E+005	2,4423459E+000	2,4418299E+000	-5,272136687325971E-003	1,000000000000000E+000	-1,4058730E-004	42	-1,2873661E-005
2	0	0	1	0	1,923199966914144E+005	2,3423865E+000	2,3419092E+000	-6,940328327224271E-003	1,000000000000000E+000	-8,2802365E-004	42	-1,6253618E-005
2	0	0	1	0	1,924310624087905E+005	2,2424276E+000	2,2419634E+000	-8,916781203552999E-003	1,000000000000000E+000	-1,7080340E-003	42	-1,9991097E-005
2	0	0	1	0	1,925421282261673E+005	2,1424685E+000	2,1418760E+000	-1,220580221938611E-002	1,000000000000000E+000	-2,8740689E-003	41	-2,6143314E-005
2	0	0	1	0	1,926531939435452E+005	2,0425091E+000	2,0419140E+000	-1,748626131639991E-002	1,000000000000000E+000	-4,5105191E-003	41	-3,5705441E-005
2	0	0	1	0	1,927642597609241E+005	1,9425498E+000	1,9419569E+000	-2,533850009286343E-002	1,000000000000000E+000	-6,8699080E-003	41	-4,9206275E-005
2	0	0	1	0	1,928753256783015E+005	1,8425906E+000	1,8420510E+000	-3,617664917462082E-002	1,000000000000000E+000	-1,0263288E-002	41	-6,6639237E-005
2	0	0	1	0	1,929863914956785E+005	1,7426316E+000	1,7420894E+000	-5,044470640716991E-002	1,000000000000000E+000	-1,5043637E-002	41	-8,7879191E-005
2	0	0	1	0	1,930974574130545E+005	1,6426721E+000	1,6421704E+000	-7,048579738304150E-002	1,000000000000000E+000	-2,1684052E-002	41	-1,1574970E-004
2	0	0	1	0	1,932085232304335E+005	1,5427129E+000	1,5421379E+000	-1,125414949711054E-001	1,000000000000000E+000	-3,1491820E-002	40	-1,7355449E-004
2	0	0	1	0	1,933195890478124E+005	1,4427538E+000	1,4421815E+000	-2,096661863053879E-001	1,000000000000000E+000	-4,9093544E-002	40	-3,0237669E-004
2	0	0	1	0	1,934306548651886E+005	1,3427945E+000	1,3422145E+000	-2,429581544453678E-001	1,000000000000000E+000	-7,5456470E-002	40	-3,2610196E-004
2	0	0	1	0	1,935417207825659E+005	1,2428354E+000	1,2422301E+000	-1,937075785583500E-001	1,000000000000000E+000	-9,9819303E-002	40	-2,4062938E-004
2	0	0	1	0	1,936527865999429E+005	1,1428761E+000	1,1422577E+000	-1,568556096695919E-001	1,000000000000000E+000	-1,1910038E-001	40	-1,7916952E-004
2	0	0	1	0	1,937638523173216E+005	1,0429170E+000	1,0422993E+000	-1,389736748675561E-001	1,000000000000000E+000	-1,3537890E-001	40	-1,4485217E-004
2	0	0	1	0	1,938732529344375E+005	1,0555117E+000	1,0549189E+000	-4,929209361386422E-002	1,000000000000000E+000	-1,4700758E-001	40	-5,1999159E-005
2	0	0	1	0	1,939843188518155E+005	1,1554710E+000	1,1549046E+000	-3,367018954164989E-003	1,000000000000000E+000	-1,4942735E-001	42	-3,8885855E-006
2	1	0	1	0	1,940953846691945E+005	1,2554302E+000	1,2547796E+000	1,404153317416218E-002	1,000000000000000E+000	-1,4871357E-001	41	1,7619030E-005
2	1	0	1	0	1,942064506865717E+005	1,3553896E+000	1,3547310E+000	2,431142057043018E-002	1,000000000000000E+000	-1,4654475E-001	41	3,2935433E-005
2	1	0	1	0	1,943175164039486E+005	1,4553485E+000	1,4546651E+000	3,348949016316549E-002	1,000000000000000E+000	-1,4333363E-001	41	4,8715992E-005
2	1	0	1	0	1,944285824213247E+005	1,5553077E+000	1,5546458E+000	4,644107452319694E-002	1,000000000000000E+000	-1,3896300E-001	41	7,2199422E-005
2	1	0	1	0	1,945396482387036E+005	1,6552670E+000	1,6546280E+000	1,453582388916659E-001	1,000000000000000E+000	-1,3002625E-001	40	2,4051382E-004
2	1	0	1	0	1,946507143560830E+005	1,7552265E+000	1,7545936E+000	2,589935905451273E-001	1,000000000000000E+000	-1,0670467E-001	40	4,5442849E-004
2	1	0	1	0	1,947617802734588E+005	1,8551854E+000	1,8545651E+000	2,591926912912044E-001	1,000000000000000E+000	-7,6763973E-002	40	4,8068972E-004
2	1	0	1	0	1,948728461908360E+005	1,9551448E+000	1,9545281E+000	1,873579783725815E-001	1,000000000000000E+000	-5,1818632E-002	40	3,6619644E-004
2	1	0	1	0	1,949839122082135E+005	2,0551040E+000	2,0544932E+000	1,215637460812531E-001	1,000000000000000E+000	-3,4838926E-002	40	2,4975190E-004
2	1	0	1	0	1,950949781255922E+005	2,1550632E+000	2,1544659E+000	7,749148476068134E-002	1,000000000000000E+000	-2,3970047E-002	40	1,6695276E-004
2	1	0	1	0	1,952060440429701E+005	2,2550223E+000	2,2544303E+000	5,056695762258945E-002	1,000000000000000E+000	-1,6981700E-002	40	1,1399968E-004
2	1	0	1	0	1,953171099603468E+005	2,3549814E+000	2,3543618E+000	3,512822664211157E-002	1,000000000000000E+000	-1,2292421E-002	41	8,2704551E-005
2	1	0	1	0	1,954281760777230E+005	2,4549406E+000	2,4543343E+000	2,721088337060532E-002	1,000000000000000E+000	-8,8778157E-003	41	6,6784603E-005
2	1	0	1	0	1,955392417951017E+005	2,5548999E+000	2,5542951E+000	2,339968565984651E-002	1,000000000000000E+000	-6,0770470E-003	41	5,9769700E-005
2	1	0	1	0	1,956503077124809E+005	2,6548593E+000	2,6542952E+000	2,113366034366648E-002	1,000000000000000E+000	-3,6153803E-003	41	5,6094974E-005
2	1	0	1	1	1,957599302296313E+005	2,6464624E+000	2,6458421E+000	4,144562630095175E-003	2,000000000000000E+000	-2,0585759E-003	42	1,0965859E-005
2	0	0	1	1	1,958709960470102E+005	2,5465035E+000	2,5459263E+000	-1,618958651414532E-003	2,000000000000000E+000	-1,9817660E-003	42	-4,1217495E-006
2	0	0	1	1	1,959820619643864E+005	2,4465444E+000	2,4460104E+000	-4,402700730376734E-003	2,000000000000000E+000	-2,3377489E-003	42	-1,0769051E-005
2	0	0	1	1	1,960931276817631E+005	2,3465848E+000	2,3460901E+000	-6,347312957613274E-003	2,000000000000000E+000	-2,9466499E-003	42	-1,4891368E-005
2	0	0	1	1	1,962041934991404E+005	2,2466257E+000	2,2461514E+000	-8,373424952810571E-003	2,000000000000000E+000	-3,7667234E-003	42	-1,8807981E-005
2	0	0	1	1	1,963152592165195E+005	2,1466668E+000	2,1461093E+000	-1,163982745939762E-002	2,000000000000000E+000	-4,8734820E-003	41	-2,4980342E-005
2	0	0	1	1	1,964263250338973E+005	2,0467074E+000	2,0461452E+000	-1,685995187963796E-002	2,000000000000000E+000	-6,4444966E-003	41	-3,4497909E-005
2	0	0	1	1	1,965373908512739E+005	1,9467484E+000	1,9461668E+000	-2,456640032473340E-002	2,000000000000000E+000	-8,7264637E-003	41	-4,7810310E-005
2	0	0	1	1	1,966484567686499E+005	1,8467889E+000	1,8462287E+000	-3,525051099763570E-002	2,000000000000000E+000	-1,2026042E-002	41	-6,5080509E-005
2	0	0	1	1	1,967595224860292E+005	1,7468299E+000	1,7462608E+000	-4,929358166194889E-002	2,000000000000000E+000	-1,6692393E-002	41	-8,6079446E-005
2	0	0	1	1	1,968705884034075E+005	1,6468705E+000	1,6463219E+000	-6,890612433371102E-002	2,000000000000000E+000	-2,3183186E-002	41	-1,1344166E-004
2	0	0	1	1	1,969816542207845E+005	1,5469114E+000	1,5463244E+000	-1,090661086383444E-001	2,000000000000000E+000	-3,2725874E-002	40	-1,6865158E-004
2	0	0	1	1	1,970927201381617E+005	1,4469522E+000	1,4463826E+000	-2,041625335881654E-001	2,000000000000000E+000	-4,9743503E-002	40	-2,9529716E-004
2	0	0	1	1	1,972037860555379E+005	1,3469927E+000	1,3464148E+000	-2,429911128308753E-001	2,000000000000000E+000	-7,5777173E-002	40	-3,2716684E-004
2	0	0	1	1	1,973148517729170E+005	1,2470337E+000	1,2464644E+000	-1,948841837951352E-001	2,000000000000000E+000	-1,0026588E-001	40	-2,4291620E-004
2	0	0	1	1	1,974259175902959E+005	1,1470745E+000	1,1464758E+000	-1,569300424592510E-001	2,000000000000000E+000	-1,1961888E-001	40	-1,7991649E-004
2	0	0	1	1	1,975369835076721E+005	1,0471152E+000	1,0464872E+000	-1,382941405641769E-001	2,000000000000000E+000	-1,3585940E-001	40	-1,4472305E-004
2	0	0	1	1	1,976466061248248E+005	1,0515134E+000	1,0509194E+000	-5,224703757825255E-002	2,000000000000000E+000	-1,4781705E-001	40	-5,4907425E-005
2	0	0	1	1	1,977576719422013E+005	1,1514724E+000	1,1509050E+000	-4,214593231893113E-003	2,000000000000000E+000	-1,5041545E-001	42	-4,8505963E-006
2	1	0	1	1	1,978687378595776E+005	1,2514319E+000	1,2508245E+000	1,357600737402313E-002	2,000000000000000E+000	-1,4976931E-001	41	1,6981203E-005
2	1	0	1	1	1,979798037769562E+005	1,3513911E+000	1,3507403E+000	2,387557024699141E-002	2,000000000000000E+000	-1,4764909E-001	41	3,2249696E-005
2	1	0	1	1	1,980908695943346E+005	1,4513502E+000	1,4506973E+000	3,293327930575246E-002	2,000000000000000E+000	-1,4449179E-001	41	4,7776219E-005
2	1	0	1	1	1,982019356117117E+005	1,5513095E+000	1,5506271E+000	4,534695054254723E-002	2,000000000000000E+000	-1,4020312E-001	41	7,0316208E-005
2	1	0	1	1	1,983130014290886E+005	1,6512686E+000	1,6506296E+000	1,376083417845724E-001	2,000000000000000E+000	-1,3177331E-001	40	2,2714041E-004
2	1	0	1	1	1,984240674464656E+005	1,7512280E+000	1,7505931E+000	2,547746673058997E-001	2,000000000000000E+000	-1,0915339E-001	40	4,4600677E-004
2	1	0	1	1	1,985351334638442E+005	1,8511871E+000	1,8505497E+000	2,614810646030534E-001	2,000000000000000E+000	-7,9316229E-002	40	4,8388372E-004
2	1	0	1	1	1,986461992812234E+005	1,9511462E+000	1,9505162E+000	1,908101713917123E-001	2,000000000000000E+000	-5,4007705E-002	40	3,7217833E-004
2	1	0	1	1	1,987572653985995E+005	2,0511057E+000	2,0504959E+000	1,239557981652315E-001	2,000000000000000E+000	-3,6696374E-002	40	2,5417085E-004
2	1	0	1	1	1,988683314159755E+005	2,1510649E+000	2,1504750E+000	7,881718105451596E-002	2,000000000000000E+000	-2,5622498E-002	40	1,6949438E-004
2	1	0	1	1	1,989793972333544E+005	2,2510242E+000	2,2504194E+000	5,123482366321086E-002	2,000000000000000E+000	-1,8525830E-002	40	1,1529984E-004
2	1	0	1	1	1,990905742507507E+005	2,3510835E+000	2,3504503E+000	3,539190129993330E-002	2,000000000000000E+000	-1,3782168E-002	41	8,3186904E-005
2	1	0	1	1	1,992016402681271E+005	2,4510424E+000	2,4504368E+000	2,727090564073026E-002	2,000000000000000E+000	-1,0352422E-002	41	6,6825633E-005
2	1	0	1	1	1,993127060855038E+005	2,5510018E+000	2,5504262E+000	2,339841650851995E-002	2,000000000000000E+000	-7,5516826E-003	41	5,9675935E-005
2	1	0	1	1	1,994237721028822E+005	2,6509612E+000	2,6503675E+000	2,104426583344979E-002	2,000000000000000E+000	-5,0950400E-003	41	5,5775039E-005
2	1	0	0	0	1,995245706186532E+005	2,7417748E+000	2,7412033E+000	2,149998472520598E-002	2,000000000000000E+000	-2,9790299E-003	41	5,8935828E-005