File: Dati/201104/CV_LTO_Al_grafite_01_1mVs_02_CV_C03.mpt
EC-Lab ASCII FILE
Nb header lines : 57

Cyclic Voltammetry

Run on channel : 3 (SN 6807)
User :
Electrode connection : standard
Ewe ctrl range : min = 0,00 V, max = 5,00 V
Ewe,I filtering : 50 kHz
Safety Limits :
	Do not start on E overload
Channel : Grounded
Acquisition started on : 11/04/2020 18:19:46
Saved on :
	File : CV_LTO_Al_grafite_01_1mVs_02_CV_C03.mpr
	Directory : C:\Users\labsuperfici\Desktop\Biologic\Users\Prisca Viviani\201104\
	Host : 10.78.33.0
Device : VSP-300 (SN 0638)
Address : USB
EC-Lab for windows v11.31 (software)
Internet server v11.30 (firmware)
Command interpretor v11.31 (firmware)
Electrode material :
Initial state :
Electrolyte :
Comments :
Cable : standard
Reference electrode : SCE Saturated Calomel Electrode (0,241 V)
Electrode surface area : 0,001 cm²
Characteristic mass : 0,001 g
Equivalent Weight : 0,000 g/eq.
Density : 0,000 g/cm3
Cycle Definition : Charge/Discharge alternance
Ei (V)              0,000
vs.                 Eoc
dE/dt               0,100
dE/dt unit          mV/s
E1 (V)              1,000
vs.                 Ref
Step percent        50
N                   10
E range min (V)     0,000
E range max (V)     5,000
I Range             Auto
I Range min         Unset
I Range max         Unset
I Range init        Unset
Bandwidth           8
E2 (V)              2,700
vs.                 Ref
nc cycles           1
Reverse Scan        1
Ef (V)              0,000
vs.                 Eoc

mode	ox/red	error	control changes	counter inc.	time/s	control/V	Ewe/V	<I>/mA	cycle number	(Q-Qo)/C	I Range	P/W
2	0	0	0	0	4,790049888123336E+003	2,7417748E+000	2,7412376E+000	-4,986440762877464E-004	1,000000000000000E+000	0,0000000E+000	42	-1,3669019E-006
2	0	0	1	0	5,785135776075636E+003	2,6422646E+000	2,6417477E+000	-6,733426540893889E-004	1,000000000000000E+000	-5,9688656E-004	43	-1,7788014E-006
2	0	0	1	0	6,784718363973494E+003	2,5423052E+000	2,5417099E+000	-9,256386696058980E-004	1,000000000000000E+000	-1,4655695E-003	42	-2,3527050E-006
2	0	0	1	0	7,784300651871381E+003	2,4423461E+000	2,4417593E+000	-1,185229528256175E-003	1,000000000000000E+000	-2,5971057E-003	42	-2,8940453E-006
2	0	0	1	0	8,783884439769201E+003	2,3423867E+000	2,3418176E+000	-1,540320622670472E-003	1,000000000000000E+000	-4,0322118E-003	42	-3,6071499E-006
2	0	0	1	0	9,783465827667074E+003	2,2424276E+000	2,2418418E+000	-2,092546939932299E-003	1,000000000000000E+000	-5,8988421E-003	42	-4,6911591E-006
2	0	0	1	0	1,078304961556492E+004	2,1424685E+000	2,1418998E+000	-2,956828271478286E-003	1,000000000000000E+000	-8,4702643E-003	42	-6,3332300E-006
2	0	0	1	0	1,178263100346280E+004	2,0425093E+000	2,0419619E+000	-4,351944108377824E-003	1,000000000000000E+000	-1,2159053E-002	42	-8,8865045E-006
2	0	0	1	0	1,278221709136065E+004	1,9425501E+000	1,9419990E+000	-6,184109586347124E-003	1,000000000000000E+000	-1,7490655E-002	42	-1,2009535E-005
2	0	0	1	0	1,378180557925840E+004	1,8425907E+000	1,8420681E+000	-8,111252698937588E-003	1,000000000000000E+000	-2,4705587E-002	42	-1,4941480E-005
2	0	0	1	0	1,478139416715619E+004	1,7426316E+000	1,7420028E+000	-1,075691770986861E-002	1,000000000000000E+000	-3,4121115E-002	41	-1,8738581E-005
2	0	0	1	0	1,578098325505397E+004	1,6426721E+000	1,6420674E+000	-1,483130694915749E-002	1,000000000000000E+000	-4,6786644E-002	41	-2,4354005E-005
2	0	0	1	0	1,678057114295173E+004	1,5427132E+000	1,5421294E+000	-3,969072905467703E-002	1,000000000000000E+000	-6,8400554E-002	41	-6,1208237E-005
2	0	0	1	0	1,778015973084955E+004	1,4427539E+000	1,4421730E+000	-4,085626570420309E-002	1,000000000000000E+000	-1,2951027E-001	41	-5,8921803E-005
2	0	0	1	0	1,877974821874735E+004	1,3427947E+000	1,3421818E+000	-3,076470046114246E-002	1,000000000000000E+000	-1,6249909E-001	41	-4,1291820E-005
2	0	0	1	0	1,977933670664509E+004	1,2428354E+000	1,2422218E+000	-3,701925776080761E-002	1,000000000000000E+000	-1,9615176E-001	41	-4,5986129E-005
2	0	0	1	0	2,077892529454292E+004	1,1428761E+000	1,1422803E+000	-3,793156682737731E-002	1,000000000000000E+000	-2,3429397E-001	41	-4,3328484E-005
2	0	0	1	0	2,177851318244071E+004	1,0429169E+000	1,0423135E+000	-3,771544682460015E-002	1,000000000000000E+000	-2,7192739E-001	41	-3,9311319E-005
2	0	0	1	0	2,276311207051994E+004	1,0555117E+000	1,0548940E+000	-1,133184010340899E-002	1,000000000000000E+000	-2,9942915E-001	41	-1,1953890E-005
2	0	0	1	0	2,376270655841770E+004	1,1554711E+000	1,1548687E+000	-2,107326739332678E-003	1,000000000000000E+000	-3,0501080E-001	42	-2,4336857E-006
2	1	0	1	0	2,476230104631544E+004	1,2554302E+000	1,2547684E+000	9,352045525605887E-004	1,000000000000000E+000	-3,0535904E-001	42	1,1734651E-006
2	1	0	1	0	2,576189553421322E+004	1,3553895E+000	1,3547024E+000	2,856355011439674E-003	1,000000000000000E+000	-3,0334526E-001	42	3,8695107E-006
2	1	0	1	0	2,676148942211090E+004	1,4553486E+000	1,4546541E+000	4,528796258333911E-003	1,000000000000000E+000	-2,9958332E-001	42	6,5878321E-006
2	1	0	1	0	2,776108391000858E+004	1,5553079E+000	1,5545557E+000	7,506334366098308E-003	1,000000000000000E+000	-2,9386917E-001	42	1,1669014E-005
2	1	0	1	0	2,876067839790636E+004	1,6552671E+000	1,6545969E+000	4,226315131619340E-002	1,000000000000000E+000	-2,5739741E-001	41	6,9928479E-005
2	1	0	1	0	2,976027348580401E+004	1,7552265E+000	1,7546163E+000	2,138436139497379E-002	1,000000000000000E+000	-2,2876053E-001	41	3,7521349E-005
2	1	0	1	0	3,075986797370180E+004	1,8551856E+000	1,8545583E+000	1,510381562834129E-002	1,000000000000000E+000	-2,1083473E-001	41	2,8010907E-005
2	1	0	1	0	3,175946246159944E+004	1,9551450E+000	1,9545130E+000	1,106236033825420E-002	1,000000000000000E+000	-1,9772208E-001	41	2,1621527E-005
2	1	0	1	0	3,275905694949720E+004	2,0551038E+000	2,0544844E+000	7,630318796590208E-003	1,000000000000000E+000	-1,8847033E-001	41	1,5676371E-005
2	1	0	1	0	3,375865145123430E+004	2,1550629E+000	2,1544712E+000	5,883499243220111E-003	1,000000000000000E+000	-1,8174116E-001	41	1,2675830E-005
2	1	0	1	0	3,475924615309795E+004	2,2551227E+000	2,2544715E+000	4,851743955228839E-003	1,000000000000000E+000	-1,7635942E-001	42	1,0938119E-005
2	1	0	1	0	3,575884055495990E+004	2,3550813E+000	2,3544495E+000	4,242474610216734E-003	1,000000000000000E+000	-1,7177148E-001	42	9,9886920E-006
2	1	0	1	0	3,675843505682168E+004	2,4550405E+000	2,4544153E+000	3,922035359127218E-003	1,000000000000000E+000	-1,6764624E-001	42	9,6263038E-006
2	1	0	1	0	3,775802955868375E+004	2,5549998E+000	2,5543995E+000	3,805949318954800E-003	1,000000000000000E+000	-1,6372597E-001	42	9,7219154E-006
2	1	0	1	0	3,875762406054564E+004	2,6549590E+000	2,6543477E+000	3,790816942369098E-003	1,000000000000000E+000	-1,5988135E-001	42	1,0062146E-005
2	1	0	1	1	3,974322046238137E+004	2,6464629E+000	2,6458790E+000	8,716808522196942E-004	2,000000000000000E+000	-1,5718244E-001	42	2,3063621E-006
2	0	0	1	1	4,074280306424317E+004	2,5465035E+000	2,5459316E+000	-1,639365767689242E-004	2,000000000000000E+000	-1,5699869E-001	43	-4,1737130E-007
2	0	0	1	1	4,174238556610525E+004	2,4465442E+000	2,4460270E+000	-5,719424156022100E-004	2,000000000000000E+000	-1,5742883E-001	43	-1,3989866E-006
2	0	0	1	1	4,274196816796693E+004	2,3465850E+000	2,3460412E+000	-8,545768098457626E-004	2,000000000000000E+000	-1,5819898E-001	42	-2,0048724E-006
2	0	0	1	1	4,374155076982878E+004	2,2466257E+000	2,2460403E+000	-1,164738899643606E-003	2,000000000000000E+000	-1,5926251E-001	42	-2,6160506E-006
2	0	0	1	1	4,474113337169075E+004	2,1466665E+000	2,1460838E+000	-1,663954839238034E-003	2,000000000000000E+000	-1,6071606E-001	42	-3,5709866E-006
2	0	0	1	1	4,574071597355255E+004	2,0467072E+000	2,0460975E+000	-2,477101569812665E-003	2,000000000000000E+000	-1,6282208E-001	42	-5,0683911E-006
2	0	0	1	1	4,674030147541454E+004	1,9467481E+000	1,9461610E+000	-3,728713061757941E-003	2,000000000000000E+000	-1,6596226E-001	42	-7,2566759E-006
2	0	0	1	1	4,773988997727638E+004	1,8467889E+000	1,8462033E+000	-5,347635715599194E-003	2,000000000000000E+000	-1,7053497E-001	42	-9,8728233E-006
2	0	0	1	1	4,873947797913826E+004	1,7468297E+000	1,7462870E+000	-7,563046135495074E-003	2,000000000000000E+000	-1,7700282E-001	42	-1,3207249E-005
2	0	0	1	1	4,973906708100019E+004	1,6468705E+000	1,6462282E+000	-1,135676429840561E-002	2,000000000000000E+000	-1,8624668E-001	41	-1,8695826E-005
2	0	0	1	1	5,073865558286197E+004	1,5469114E+000	1,5463020E+000	-3,617336746023936E-002	2,000000000000000E+000	-2,0453878E-001	41	-5,5934950E-005
2	0	0	1	1	5,173824418472394E+004	1,4469521E+000	1,4463797E+000	-3,575722104460732E-002	2,000000000000000E+000	-2,5399822E-001	41	-5,1718518E-005
2	0	0	1	1	5,273783268658584E+004	1,3469929E+000	1,3463801E+000	-2,207631875515970E-002	2,000000000000000E+000	-2,8203788E-001	41	-2,9723116E-005
2	0	0	1	1	5,373742058844760E+004	1,2470336E+000	1,2464740E+000	-1,581228817969993E-002	2,000000000000000E+000	-2,9982421E-001	41	-1,9709607E-005
2	0	0	1	1	5,473700919030956E+004	1,1470745E+000	1,1465178E+000	-1,693470752578319E-002	2,000000000000000E+000	-3,1591088E-001	41	-1,9415942E-005
2	0	0	1	1	5,573659769217129E+004	1,0471151E+000	1,0465406E+000	-2,086244304027546E-002	2,000000000000000E+000	-3,3470830E-001	41	-2,1833393E-005
2	0	0	1	1	5,672319569400907E+004	1,0515134E+000	1,0509423E+000	-6,742361262909460E-003	2,000000000000000E+000	-3,5128215E-001	41	-7,0858327E-006
2	0	0	1	1	5,772279019587091E+004	1,1514726E+000	1,1509551E+000	-6,203388766192501E-004	2,000000000000000E+000	-3,5420704E-001	43	-7,1398216E-007
2	1	0	1	1	5,872238469773275E+004	1,2514319E+000	1,2508209E+000	1,924202708069693E-003	2,000000000000000E+000	-3,5345718E-001	42	2,4068329E-006
2	1	0	1	1	5,972197859959467E+004	1,3513912E+000	1,3507735E+000	3,750237645015706E-003	2,000000000000000E+000	-3,5047269E-001	42	5,0657213E-006
2	1	0	1	1	6,072157310145663E+004	1,4513502E+000	1,4506888E+000	5,401024285678541E-003	2,000000000000000E+000	-3,4587154E-001	42	7,8352059E-006
2	1	0	1	1	6,172116760331852E+004	1,5513096E+000	1,5506328E+000	7,501910813699053E-003	2,000000000000000E+000	-3,3965662E-001	42	1,1632709E-005
2	1	0	1	1	6,272076210518042E+004	1,6512686E+000	1,6506438E+000	4,956266983900870E-002	2,000000000000000E+000	-3,0948359E-001	41	8,1810314E-005
2	1	0	1	1	6,372035720704217E+004	1,7512279E+000	1,7506171E+000	2,951077158463100E-002	2,000000000000000E+000	-2,7146038E-001	41	5,1662064E-005
2	1	0	1	1	6,471995160890417E+004	1,8511872E+000	1,8505940E+000	1,858764182213984E-002	2,000000000000000E+000	-2,4813348E-001	41	3,4398181E-005
2	1	0	1	1	6,571954556697689E+004	1,9511465E+000	1,9505816E+000	1,240548390034203E-002	2,000000000000000E+000	-2,3266940E-001	41	2,4197909E-005
2	1	0	1	1	6,671913973054034E+004	2,0511055E+000	2,0505486E+000	7,861450184640670E-003	2,000000000000000E+000	-2,2266346E-001	41	1,6120286E-005
2	1	0	1	1	6,771873529410176E+004	2,1510651E+000	2,1505344E+000	5,376915955450239E-003	2,000000000000000E+000	-2,1613361E-001	41	1,1563243E-005
2	1	0	1	1	6,871932845742692E+004	2,2511239E+000	2,2505190E+000	4,337708086697110E-003	2,000000000000000E+000	-2,1128403E-001	42	9,7620950E-006
2	1	0	1	1	6,971892272098811E+004	2,3510835E+000	2,3504939E+000	3,906656578537442E-003	2,000000000000000E+000	-2,0710821E-001	42	9,1825723E-006
2	1	0	1	1	7,071851698454272E+004	2,4510424E+000	2,4504683E+000	3,651476701033703E-003	2,000000000000000E+000	-2,0330898E-001	42	8,9478281E-006
2	1	0	1	1	7,171811124809599E+004	2,5510015E+000	2,5503902E+000	3,570280192177103E-003	2,000000000000000E+000	-1,9963652E-001	42	9,1056081E-006
2	1	0	1	1	7,271770551164309E+004	2,6509607E+000	2,6503882E+000	3,553937865646496E-003	2,000000000000000E+000	-1,9603702E-001	42	9,4193156E-006
2	1	0	1	0	7,362489009707235E+004	2,7417748E+000	2,7411575E+000	4,134544514511757E-003	2,000000000000000E+000	-1,9264172E-001	42	1,1333438E-005