File: Dati/201104/CV_LTO_Al_grafite_01_1mVs_09_CV_C03.mpt
EC-Lab ASCII FILE
Nb header lines : 57

Cyclic Voltammetry

Run on channel : 3 (SN 6807)
User :
Electrode connection : standard
Ewe ctrl range : min = 0,00 V, max = 5,00 V
Ewe,I filtering : 50 kHz
Safety Limits :
	Do not start on E overload
Channel : Grounded
Acquisition started on : 11/04/2020 18:19:46
Saved on :
	File : CV_LTO_Al_grafite_01_1mVs_09_CV_C03.mpr
	Directory : C:\Users\labsuperfici\Desktop\Biologic\Users\Prisca Viviani\201104\
	Host : 10.78.33.0
Device : VSP-300 (SN 0638)
Address : USB
EC-Lab for windows v11.31 (software)
Internet server v11.30 (firmware)
Command interpretor v11.31 (firmware)
Electrode material :
Initial state :
Electrolyte :
Comments :
Cable : standard
Reference electrode : SCE Saturated Calomel Electrode (0,241 V)
Electrode surface area : 0,001 cm²
Characteristic mass : 0,001 g
Equivalent Weight : 0,000 g/eq.
Density : 0,000 g/cm3
Cycle Definition : Charge/Discharge alternance
Ei (V)              0,000
vs.                 Eoc
dE/dt               0,800
dE/dt unit          mV/s
E1 (V)              1,000
vs.                 Ref
Step percent        50
N                   10
E range min (V)     0,000
E range max (V)     5,000
I Range             Auto
I Range min         Unset
I Range max         Unset
I Range init        Unset
Bandwidth           8
E2 (V)              2,700
vs.                 Ref
nc cycles           1
Reverse Scan        1
Ef (V)              0,000
vs.                 Eoc

mode	ox/red	error	control changes	counter inc.	time/s	control/V	Ewe/V	<I>/mA	cycle number	(Q-Qo)/C	I Range	P/W
2	1	0	0	0	1,832716442756909E+005	2,7417748E+000	2,7411385E+000	1,891399547457695E-002	1,000000000000000E+000	0,0000000E+000	41	5,1845880E-005
2	1	0	1	0	1,833960311951542E+005	2,6422646E+000	2,6416721E+000	1,719935350237949E-004	1,000000000000000E+000	5,3063914E-004	43	4,5435053E-007
2	0	0	1	0	1,835209801147054E+005	2,5423052E+000	2,5417824E+000	-2,933385580070821E-003	1,000000000000000E+000	3,2459031E-004	42	-7,4560276E-006
2	0	0	1	0	1,836459290342536E+005	2,4423463E+000	2,4418457E+000	-4,824176595885465E-003	1,000000000000000E+000	-1,7805687E-004	42	-1,1779895E-005
2	0	0	1	0	1,837708780538023E+005	2,3423867E+000	2,3419192E+000	-6,303348653760865E-003	1,000000000000000E+000	-8,8355807E-004	42	-1,4761933E-005
2	0	0	1	0	1,838958267733533E+005	2,2424278E+000	2,2419250E+000	-8,116039322869473E-003	1,000000000000000E+000	-1,7846558E-003	42	-1,8195551E-005
2	0	0	1	0	1,840207759929039E+005	2,1424685E+000	2,1418581E+000	-1,113620375232049E-002	1,000000000000000E+000	-2,9799542E-003	41	-2,3852168E-005
2	0	0	1	0	1,841457248124522E+005	2,0425088E+000	2,0419350E+000	-1,600207702611589E-002	1,000000000000000E+000	-4,6624169E-003	41	-3,2675202E-005
2	0	0	1	0	1,842706740320018E+005	1,9425501E+000	1,9419581E+000	-2,323260473292993E-002	1,000000000000000E+000	-7,0954179E-003	41	-4,5116743E-005
2	0	0	1	0	1,843956230515523E+005	1,8425907E+000	1,8420205E+000	-3,329334058920558E-002	1,000000000000000E+000	-1,0605091E-002	41	-6,1327017E-005
2	0	0	1	0	1,845205720711024E+005	1,7426317E+000	1,7420661E+000	-4,647121263683401E-002	1,000000000000000E+000	-1,5557962E-002	41	-8,0955928E-005
2	0	0	1	0	1,846455211906508E+005	1,6426723E+000	1,6421506E+000	-6,533602747938450E-002	1,000000000000000E+000	-2,2456676E-002	41	-1,0729160E-004
2	0	0	1	0	1,847704701102010E+005	1,5427133E+000	1,5421325E+000	-1,072501454591023E-001	1,000000000000000E+000	-3,2812949E-002	40	-1,6539394E-004
2	0	0	1	0	1,848954192297517E+005	1,4427538E+000	1,4421903E+000	-2,051614113229134E-001	1,000000000000000E+000	-5,2123655E-002	40	-2,9588179E-004
2	0	0	1	0	1,850203683493012E+005	1,3427945E+000	1,3422196E+000	-2,233102498621280E-001	1,000000000000000E+000	-8,0355451E-002	40	-2,9973139E-004
2	0	0	1	0	1,851453173688496E+005	1,2428355E+000	1,2422568E+000	-1,718571048717576E-001	1,000000000000000E+000	-1,0499126E-001	40	-2,1349065E-004
2	0	0	1	0	1,852702663884001E+005	1,1428764E+000	1,1422496E+000	-1,386599566184628E-001	1,000000000000000E+000	-1,2418596E-001	40	-1,5838428E-004
2	0	0	1	0	1,853952153079512E+005	1,0429170E+000	1,0422784E+000	-1,233262242003939E-001	1,000000000000000E+000	-1,4039786E-001	40	-1,2854025E-004
2	0	0	1	0	1,855182909272071E+005	1,0555118E+000	1,0549564E+000	-3,887962183024826E-002	1,000000000000000E+000	-1,5177533E-001	41	-4,1016308E-005
2	1	0	1	0	1,856432400467559E+005	1,1554712E+000	1,1548516E+000	1,048462166939327E-003	1,000000000000000E+000	-1,5362257E-001	43	1,2108181E-006
2	1	0	1	0	1,857681890663059E+005	1,2554303E+000	1,2547785E+000	1,561710159509677E-002	1,000000000000000E+000	-1,5245962E-001	41	1,9596004E-005
2	1	0	1	0	1,858931382858565E+005	1,3553896E+000	1,3547238E+000	2,430081294120556E-002	1,000000000000000E+000	-1,4992861E-001	41	3,2920889E-005
2	1	0	1	0	1,860180872054058E+005	1,4553486E+000	1,4546771E+000	3,229023729148994E-002	1,000000000000000E+000	-1,4639480E-001	41	4,6971869E-005
2	1	0	1	0	1,861430364249544E+005	1,5553079E+000	1,5546169E+000	4,410006725163773E-002	1,000000000000000E+000	-1,4170197E-001	41	6,8558715E-005
2	1	0	1	0	1,862679856445049E+005	1,6552672E+000	1,6546084E+000	1,468774328749842E-001	1,000000000000000E+000	-1,3169953E-001	40	2,4302462E-004
2	1	0	1	0	1,863929347640558E+005	1,7552264E+000	1,7545882E+000	2,507225835590114E-001	1,000000000000000E+000	-1,0573374E-001	40	4,3991490E-004
2	1	0	1	0	1,865178839836051E+005	1,8551857E+000	1,8545415E+000	2,318197646903057E-001	1,000000000000000E+000	-7,4338034E-002	40	4,2991940E-004
2	1	0	1	0	1,866428332031537E+005	1,9551451E+000	1,9545206E+000	1,595508125910208E-001	1,000000000000000E+000	-4,9879737E-002	40	3,1184536E-004
2	1	0	1	0	1,867677822227040E+005	2,0551038E+000	2,0545056E+000	1,012938975137360E-001	1,000000000000000E+000	-3,3815846E-002	40	2,0810888E-004
2	1	0	1	0	1,868927314422550E+005	2,1550634E+000	2,1544750E+000	6,456643259428496E-002	1,000000000000000E+000	-2,3638783E-002	40	1,3910676E-004
2	1	0	1	0	1,870178055618233E+005	2,2551224E+000	2,2544575E+000	4,254493741711574E-002	1,000000000000000E+000	-1,7056480E-002	41	9,5915755E-005
2	1	0	1	0	1,871427546813721E+005	2,3550816E+000	2,3544371E+000	2,990924679694051E-002	1,000000000000000E+000	-1,2600286E-002	41	7,0419439E-005
2	1	0	1	0	1,872677039009227E+005	2,4550409E+000	2,4544182E+000	2,380096580561131E-002	1,000000000000000E+000	-9,2861401E-003	41	5,8417525E-005
2	1	0	1	0	1,873926530204737E+005	2,5550001E+000	2,5543947E+000	2,088642238262678E-002	1,000000000000000E+000	-6,4981580E-003	41	5,3352167E-005
2	1	0	1	0	1,875176021400224E+005	2,6549594E+000	2,6543765E+000	1,911030814745018E-002	1,000000000000000E+000	-4,0108454E-003	41	5,0725954E-005
2	1	0	1	1	1,876408023592979E+005	2,6464629E+000	2,6458697E+000	3,687749307794162E-003	2,000000000000000E+000	-2,4294907E-003	42	9,7573047E-006
2	0	0	1	1	1,877657514788479E+005	2,5465035E+000	2,5459552E+000	-1,551249899528871E-003	2,000000000000000E+000	-2,3626811E-003	42	-3,9494125E-006
2	0	0	1	1	1,878907005983987E+005	2,4465444E+000	2,4460392E+000	-4,061735897017943E-003	2,000000000000000E+000	-2,7368811E-003	42	-9,9351655E-006
2	0	0	1	1	1,880156494179480E+005	2,3465853E+000	2,3460877E+000	-5,797477617806676E-003	2,000000000000000E+000	-3,3649099E-003	42	-1,3601390E-005
2	0	0	1	1	1,881405983374962E+005	2,2466259E+000	2,2461326E+000	-7,637696337351688E-003	2,000000000000000E+000	-4,2048893E-003	42	-1,7155278E-005
2	0	0	1	1	1,882655474570470E+005	2,1466668E+000	2,1460948E+000	-1,062585212929799E-002	2,000000000000000E+000	-5,3387405E-003	41	-2,2804086E-005
2	0	0	1	1	1,883904962765984E+005	2,0467074E+000	2,0461323E+000	-1,543780821740720E-002	2,000000000000000E+000	-6,9528818E-003	41	-3,1587799E-005
2	0	0	1	1	1,885154453961463E+005	1,9467481E+000	1,9461637E+000	-2,253999751102699E-002	2,000000000000000E+000	-9,3046455E-003	41	-4,3866523E-005
2	0	0	1	1	1,886403944156945E+005	1,8467890E+000	1,8462503E+000	-3,236800384590810E-002	2,000000000000000E+000	-1,2714157E-002	41	-5,9759437E-005
2	0	0	1	1	1,887653434352461E+005	1,7468299E+000	1,7462778E+000	-4,534268811184916E-002	2,000000000000000E+000	-1,7544774E-002	41	-7,9180929E-005
2	0	0	1	1	1,888902926547974E+005	1,6468705E+000	1,6463201E+000	-6,378704378145250E-002	2,000000000000000E+000	-2,4283679E-002	41	-1,0501389E-004
2	0	0	1	1	1,890152416743455E+005	1,5469115E+000	1,5463336E+000	-1,037085701177536E-001	2,000000000000000E+000	-3,4341503E-002	40	-1,6036804E-004
2	0	0	1	1	1,891401906938937E+005	1,4469521E+000	1,4463620E+000	-1,997506494542212E-001	2,000000000000000E+000	-5,2971337E-002	40	-2,8891175E-004
2	0	0	1	1	1,892651397134452E+005	1,3469930E+000	1,3464135E+000	-2,241517028273892E-001	2,000000000000000E+000	-8,0908678E-002	40	-3,0180087E-004
2	0	0	1	1	1,893900887329960E+005	1,2470336E+000	1,2464416E+000	-1,729134018233536E-001	2,000000000000000E+000	-1,0571314E-001	40	-2,1552645E-004
2	0	0	1	1	1,895150378525443E+005	1,1470745E+000	1,1464607E+000	-1,386357874625490E-001	2,000000000000000E+000	-1,2496971E-001	40	-1,5894047E-004
2	0	0	1	1	1,896399868720933E+005	1,0471153E+000	1,0464898E+000	-1,225827663457404E-001	2,000000000000000E+000	-1,4113308E-001	40	-1,2828162E-004
2	0	0	1	1	1,897633121913901E+005	1,0515134E+000	1,0509591E+000	-4,165106743433644E-002	2,000000000000000E+000	-1,5286413E-001	41	-4,3773569E-005
2	1	0	1	1	1,898882614109414E+005	1,1514728E+000	1,1508263E+000	1,927485075513256E-004	2,000000000000000E+000	-1,5489428E-001	43	2,2182006E-007
2	1	0	1	1	1,900132104304894E+005	1,2514321E+000	1,2508056E+000	1,523700144286383E-002	2,000000000000000E+000	-1,5379955E-001	41	1,9058527E-005
2	1	0	1	1	1,901381595500377E+005	1,3513912E+000	1,3507355E+000	2,389011905254984E-002	2,000000000000000E+000	-1,5131819E-001	41	3,2269232E-005
2	1	0	1	1	1,902631085695889E+005	1,4513505E+000	1,4507041E+000	3,175638579167128E-002	2,000000000000000E+000	-1,4784239E-001	41	4,6069119E-005
2	1	0	1	1	1,903880577891399E+005	1,5513097E+000	1,5506527E+000	4,305783391557516E-002	2,000000000000000E+000	-1,4323749E-001	41	6,6767745E-005
2	1	0	1	1	1,905130070086885E+005	1,6512688E+000	1,6506376E+000	1,389585370166131E-001	2,000000000000000E+000	-1,3384013E-001	40	2,2937018E-004
2	1	0	1	1	1,906379561282368E+005	1,7512281E+000	1,7505875E+000	2,469323482654913E-001	2,000000000000000E+000	-1,0866069E-001	40	4,3227666E-004
2	1	0	1	1	1,907629053477880E+005	1,8511872E+000	1,8505772E+000	2,348093570665384E-001	2,000000000000000E+000	-7,7278599E-002	40	4,3453285E-004
2	1	0	1	1	1,908878544673389E+005	1,9511464E+000	1,9505628E+000	1,630697013585913E-001	2,000000000000000E+000	-5,2373588E-002	40	3,1807771E-004
2	1	0	1	1	1,910128034868874E+005	2,0511055E+000	2,0504918E+000	1,034684453445258E-001	2,000000000000000E+000	-3,5948943E-002	40	2,1216121E-004
2	1	0	1	1	1,911377529064361E+005	2,1510649E+000	2,1504545E+000	6,562907680941166E-002	2,000000000000000E+000	-2,5572104E-002	40	1,4113235E-004
2	1	0	1	1	1,912628268260066E+005	2,2511241E+000	2,2504947E+000	4,307024505843776E-002	2,000000000000000E+000	-1,8893857E-002	41	9,6929361E-005
2	1	0	1	1	1,913877759455573E+005	2,3510833E+000	2,3504746E+000	3,011139217623199E-002	2,000000000000000E+000	-1,4395341E-002	41	7,0776063E-005
2	1	0	1	1	1,915127251651059E+005	2,4510422E+000	2,4504366E+000	2,380714172788487E-002	2,000000000000000E+000	-1,1070486E-002	41	5,8337890E-005
2	1	0	1	1	1,916376741846551E+005	2,5510018E+000	2,5504062E+000	2,084502002978794E-002	2,000000000000000E+000	-8,2872398E-003	41	5,3163269E-005
2	1	0	1	1	1,917626234042058E+005	2,6509609E+000	2,6503770E+000	1,902315661650561E-002	2,000000000000000E+000	-5,8077010E-003	41	5,0418537E-005
2	1	0	0	0	1,918760220219474E+005	2,7417748E+000	2,7411919E+000	1,963613689716520E-002	2,000000000000000E+000	-3,6474203E-003	41	5,3826418E-005