File: Dati/201104_LTO-CNT/CV_LTO_Al_grafite_01_1mVs_07_CV_C03.mpt
EC-Lab ASCII FILE
Nb header lines : 57

Cyclic Voltammetry

Run on channel : 3 (SN 6807)
User :
Electrode connection : standard
Ewe ctrl range : min = 0,00 V, max = 5,00 V
Ewe,I filtering : 50 kHz
Safety Limits :
	Do not start on E overload
Channel : Grounded
Acquisition started on : 11/04/2020 18:19:46
Saved on :
	File : CV_LTO_Al_grafite_01_1mVs_07_CV_C03.mpr
	Directory : C:\Users\labsuperfici\Desktop\Biologic\Users\Prisca Viviani\201104\
	Host : 10.78.33.0
Device : VSP-300 (SN 0638)
Address : USB
EC-Lab for windows v11.31 (software)
Internet server v11.30 (firmware)
Command interpretor v11.31 (firmware)
Electrode material :
Initial state :
Electrolyte :
Comments :
Cable : standard
Reference electrode : SCE Saturated Calomel Electrode (0,241 V)
Electrode surface area : 0,001 cm²
Characteristic mass : 0,001 g
Equivalent Weight : 0,000 g/eq.
Density : 0,000 g/cm3
Cycle Definition : Charge/Discharge alternance
Ei (V)              0,000
vs.                 Eoc
dE/dt               0,600
dE/dt unit          mV/s
E1 (V)              1,000
vs.                 Ref
Step percent        50
N                   10
E range min (V)     0,000
E range max (V)     5,000
I Range             Auto
I Range min         Unset
I Range max         Unset
I Range init        Unset
Bandwidth           8
E2 (V)              2,700
vs.                 Ref
nc cycles           1
Reverse Scan        1
Ef (V)              0,000
vs.                 Eoc

mode	ox/red	error	control changes	counter inc.	time/s	control/V	Ewe/V	<I>/mA	cycle number	(Q-Qo)/C	I Range	P/W
2	1	0	0	0	1,619650951420323E+005	2,7417748E+000	2,7411690E+000	1,427679229527712E-002	1,000000000000000E+000	0,0000000E+000	41	3,9135099E-005
2	1	0	1	0	1,621309443679815E+005	2,6422641E+000	2,6417282E+000	5,093056430010513E-005	1,000000000000000E+000	5,3486187E-004	43	1,3454471E-007
2	0	0	1	0	1,622975430940497E+005	2,5423050E+000	2,5418246E+000	-2,331124344835060E-003	1,000000000000000E+000	3,0689550E-004	42	-5,9253093E-006
2	0	0	1	0	1,624641416201140E+005	2,4423456E+000	2,4418771E+000	-3,753541409178024E-003	1,000000000000000E+000	-2,1972982E-004	42	-9,1656866E-006
2	0	0	1	0	1,626307406461802E+005	2,3423867E+000	2,3419352E+000	-4,851702751952625E-003	1,000000000000000E+000	-9,4757555E-004	42	-1,1362374E-005
2	0	0	1	0	1,627973392722486E+005	2,2424276E+000	2,2419524E+000	-6,260063694080220E-003	1,000000000000000E+000	-1,8752273E-003	42	-1,4034765E-005
2	0	0	1	0	1,629639381983131E+005	2,1424680E+000	2,1420267E+000	-8,582996468783827E-003	1,000000000000000E+000	-3,1058383E-003	42	-1,8385008E-005
2	0	0	1	0	1,631305367243788E+005	2,0425091E+000	2,0419781E+000	-1,239023290327251E-002	1,000000000000000E+000	-4,8411605E-003	41	-2,5300584E-005
2	0	0	0	0	1,632971357504474E+005	1,9425498E+000	1,9420066E+000	-1,799797826938542E-002	1,000000000000000E+000	-7,3526930E-003	41	-3,4952191E-005
2	0	0	1	0	1,634637345765122E+005	1,8425907E+000	1,8420556E+000	-2,583101761332938E-002	1,000000000000000E+000	-1,0981106E-002	41	-4,7582169E-005
2	0	0	1	0	1,636303333025780E+005	1,7426314E+000	1,7421153E+000	-3,609768285539929E-002	1,000000000000000E+000	-1,6107595E-002	41	-6,2886327E-005
2	0	0	1	0	1,637969321286464E+005	1,6426721E+000	1,6421429E+000	-5,098954163506231E-002	1,000000000000000E+000	-2,3259554E-002	41	-8,3732113E-005
2	0	0	1	0	1,639635308547113E+005	1,5427129E+000	1,5422484E+000	-8,589074172665356E-002	1,000000000000000E+000	-3,4167744E-002	41	-1,3246486E-004
2	0	0	1	0	1,641301296807765E+005	1,4427538E+000	1,4422286E+000	-1,683621347237358E-001	1,000000000000000E+000	-5,5291638E-002	40	-2,4281668E-004
2	0	0	1	0	1,642967284068451E+005	1,3427944E+000	1,3422205E+000	-1,708006591682343E-001	1,000000000000000E+000	-8,5178219E-002	40	-2,2925215E-004
2	0	0	1	0	1,644633271329104E+005	1,2428354E+000	1,2422520E+000	-1,286413944971507E-001	1,000000000000000E+000	-1,0991610E-001	40	-1,5980503E-004
2	0	0	0	0	1,646299259589757E+005	1,1428761E+000	1,1422846E+000	-1,042024815042968E-001	1,000000000000000E+000	-1,2910172E-001	40	-1,1902890E-004
2	0	0	1	0	1,647965246850438E+005	1,0429169E+000	1,0423280E+000	-9,330829633648152E-002	1,000000000000000E+000	-1,4539889E-001	40	-9,7257849E-005
2	0	0	1	0	1,649606251107183E+005	1,0555117E+000	1,0549641E+000	-2,702818505573401E-002	1,000000000000000E+000	-1,5671773E-001	41	-2,8513765E-005
2	1	0	1	0	1,651272239367841E+005	1,1554710E+000	1,1548766E+000	2,384707728391486E-003	1,000000000000000E+000	-1,5824167E-001	42	2,7540432E-006
2	1	0	0	0	1,652938228628524E+005	1,2554302E+000	1,2547952E+000	1,304591151403854E-002	1,000000000000000E+000	-1,5683962E-001	41	1,6369948E-005
2	1	0	1	0	1,654604218889174E+005	1,3553895E+000	1,3547512E+000	1,956435300550127E-002	1,000000000000000E+000	-1,5408699E-001	41	2,6504831E-005
2	1	0	1	0	1,656270207149829E+005	1,4553486E+000	1,4547361E+000	2,569178881270028E-002	1,000000000000000E+000	-1,5031911E-001	41	3,7374772E-005
2	1	0	1	0	1,657936196410516E+005	1,5553076E+000	1,5546910E+000	3,492921505111751E-002	1,000000000000000E+000	-1,4535645E-001	41	5,4304135E-005
2	1	0	1	0	1,659602184671165E+005	1,6552671E+000	1,6546938E+000	1,205579352886226E-001	1,000000000000000E+000	-1,3449560E-001	40	1,9948647E-004
2	1	0	1	0	1,661268175931820E+005	1,7552264E+000	1,7546514E+000	1,977430002560645E-001	1,000000000000000E+000	-1,0662140E-001	40	3,4697005E-004
2	1	0	1	0	1,662934165192507E+005	1,8551853E+000	1,8545951E+000	1,711629056257316E-001	1,000000000000000E+000	-7,4698433E-002	40	3,1743789E-004
2	1	0	1	0	1,664600155453156E+005	1,9551446E+000	1,9545976E+000	1,157908066753979E-001	1,000000000000000E+000	-5,0886121E-002	40	2,2632444E-004
2	1	0	1	0	1,666266144713811E+005	2,0551038E+000	2,0545523E+000	7,447905780382735E-002	1,000000000000000E+000	-3,5265323E-002	40	1,5302112E-004
2	1	0	1	0	1,667933802974736E+005	2,1551628E+000	2,1545491E+000	4,832136935418019E-002	1,000000000000000E+000	-2,5191013E-002	41	1,0411076E-004
2	1	0	1	0	1,669599791235421E+005	2,2551222E+000	2,2545574E+000	3,227737818781573E-002	1,000000000000000E+000	-1,8583043E-002	41	7,2771203E-005
2	1	0	1	0	1,671265783496071E+005	2,3550816E+000	2,3545182E+000	2,314860785899381E-002	1,000000000000000E+000	-1,4033951E-002	41	5,4503817E-005
2	1	0	1	0	1,672931774756731E+005	2,4550407E+000	2,4544930E+000	1,866265021129166E-002	1,000000000000000E+000	-1,0590033E-002	41	4,5807345E-005
2	1	0	1	0	1,674597766017416E+005	2,5549998E+000	2,5544441E+000	1,654814986207603E-002	1,000000000000000E+000	-7,6593757E-003	41	4,2271324E-005
2	1	0	1	0	1,676263758278062E+005	2,6549592E+000	2,6544533E+000	1,511976835187578E-002	1,000000000000000E+000	-5,0331778E-003	41	4,0134717E-005
2	1	0	1	1	1,677906424535075E+005	2,6464627E+000	2,6459157E+000	2,994493879756227E-003	2,000000000000000E+000	-3,3598922E-003	42	7,9231786E-006
2	0	0	1	1	1,679572411795743E+005	2,5465035E+000	2,5459938E+000	-1,194053074124592E-003	2,000000000000000E+000	-3,2811698E-003	42	-3,0400518E-006
2	0	0	1	1	1,681238399056422E+005	2,4465442E+000	2,4460309E+000	-3,120373123170928E-003	2,000000000000000E+000	-3,6647273E-003	42	-7,6325286E-006
2	0	0	1	1	1,682904387317066E+005	2,3465848E+000	2,3460915E+000	-4,390507559839781E-003	2,000000000000000E+000	-4,3022879E-003	42	-1,0300532E-005
2	0	0	1	1	1,684570375577728E+005	2,2466257E+000	2,2461734E+000	-5,796073667911600E-003	2,000000000000000E+000	-5,1518129E-003	42	-1,3018986E-005
2	0	0	1	1	1,686236363838413E+005	2,1466665E+000	2,1462612E+000	-8,042664181478580E-003	2,000000000000000E+000	-6,2995264E-003	42	-1,7261658E-005
2	0	0	1	1	1,687902351099057E+005	2,0467074E+000	2,0462263E+000	-1,170010602886473E-002	2,000000000000000E+000	-7,9334341E-003	41	-2,3941064E-005
2	0	0	1	1	1,689568339359718E+005	1,9467481E+000	1,9462032E+000	-1,710928036172873E-002	2,000000000000000E+000	-1,0312402E-002	41	-3,3298136E-005
2	0	0	1	1	1,691234327620403E+005	1,8467886E+000	1,8462752E+000	-2,476925077193254E-002	2,000000000000000E+000	-1,3779934E-002	41	-4,5730852E-005
2	0	0	1	1	1,692900313881048E+005	1,7468297E+000	1,7462939E+000	-3,492465196140121E-002	2,000000000000000E+000	-1,8721193E-002	41	-6,0988707E-005
2	0	0	1	1	1,694566303141704E+005	1,6468704E+000	1,6463596E+000	-4,936575009970223E-002	2,000000000000000E+000	-2,5653997E-002	41	-8,1273778E-005
2	0	0	1	1	1,696232290402390E+005	1,5469111E+000	1,5464276E+000	-8,161686907646848E-002	2,000000000000000E+000	-3,6124930E-002	41	-1,2621458E-004
2	0	0	1	1	1,697898278663039E+005	1,4469520E+000	1,4463993E+000	-1,615753005597569E-001	2,000000000000000E+000	-5,6113955E-002	40	-2,3370241E-004
2	0	0	1	1	1,699564266923694E+005	1,3469927E+000	1,3464550E+000	-1,719134337005073E-001	2,000000000000000E+000	-8,5560426E-002	40	-2,3147369E-004
2	0	0	1	1	1,701230253184377E+005	1,2470336E+000	1,2464943E+000	-1,300921007069444E-001	2,000000000000000E+000	-1,1057832E-001	40	-1,6215906E-004
2	0	0	1	1	1,702896240445030E+005	1,1470745E+000	1,1464987E+000	-1,048957660719032E-001	2,000000000000000E+000	-1,2993859E-001	40	-1,2026286E-004
2	0	0	0	1	1,704562228705678E+005	1,0471152E+000	1,0465239E+000	-9,365862102725697E-002	2,000000000000000E+000	-1,4632031E-001	40	-9,8015989E-005
2	0	0	1	1	1,706206564962967E+005	1,0515133E+000	1,0509881E+000	-2,973725649534236E-002	2,000000000000000E+000	-1,5814309E-001	41	-3,1253501E-005
2	1	0	1	1	1,707872552223625E+005	1,1514726E+000	1,1508775E+000	1,725604735675745E-003	2,000000000000000E+000	-1,5990432E-001	42	1,9859597E-006
2	1	0	1	1	1,709538542484310E+005	1,2514318E+000	1,2508435E+000	1,279016755688081E-002	2,000000000000000E+000	-1,5856715E-001	41	1,5998497E-005
2	1	0	1	1	1,711204531744960E+005	1,3513911E+000	1,3507713E+000	1,932140196706633E-002	2,000000000000000E+000	-1,5585113E-001	41	2,6098796E-005
2	1	0	1	1	1,712870521005616E+005	1,4513502E+000	1,4507238E+000	2,541993872516785E-002	2,000000000000000E+000	-1,5212514E-001	41	3,6877311E-005
2	1	0	1	1	1,714536510266298E+005	1,5513095E+000	1,5507003E+000	3,432697062570426E-002	2,000000000000000E+000	-1,4722306E-001	41	5,3230844E-005
2	1	0	0	1	1,716202498526950E+005	1,6512687E+000	1,6506546E+000	1,180892459418250E-001	2,000000000000000E+000	-1,3675547E-001	40	1,9492455E-004
2	1	0	1	1	1,717868489787607E+005	1,7512280E+000	1,7506206E+000	2,005547751996939E-001	2,000000000000000E+000	-1,0881054E-001	40	3,5109531E-004
2	1	0	1	1	1,719534479048289E+005	1,8511872E+000	1,8505914E+000	1,749606984537424E-001	2,000000000000000E+000	-7,6254733E-002	40	3,2378075E-004
2	1	0	1	1	1,721200467308941E+005	1,9511461E+000	1,9505638E+000	1,166959451240841E-001	2,000000000000000E+000	-5,2047651E-002	40	2,2762289E-004
2	1	0	1	1	1,722866457569595E+005	2,0511053E+000	2,0505404E+000	7,364547300171376E-002	2,000000000000000E+000	-3,6453348E-002	40	1,5101302E-004
2	1	0	1	1	1,724534115830520E+005	2,1511645E+000	2,1505830E+000	4,717950369878154E-002	2,000000000000000E+000	-2,6558120E-002	41	1,0146344E-004
2	1	0	1	1	1,726200104091205E+005	2,2511241E+000	2,2505441E+000	3,113887200748799E-002	2,000000000000000E+000	-2,0141246E-002	41	7,0079404E-005
2	1	0	1	1	1,727866096351857E+005	2,3510833E+000	2,3505235E+000	2,226082684745700E-002	2,000000000000000E+000	-1,5766449E-002	41	5,2324594E-005
2	1	0	1	1	1,729532087612515E+005	2,4510424E+000	2,4504890E+000	1,807146756600347E-002	2,000000000000000E+000	-1,2447666E-002	41	4,4283934E-005
2	1	0	1	1	1,731198078873199E+005	2,5510013E+000	2,5504513E+000	1,614908648786623E-002	2,000000000000000E+000	-9,5969364E-003	41	4,1187457E-005
2	1	0	1	1	1,732864071133847E+005	2,6509609E+000	2,6504128E+000	1,490681888223941E-002	2,000000000000000E+000	-7,0192302E-003	41	3,9509225E-005
2	1	0	0	0	1,734376047370429E+005	2,7417748E+000	2,7412262E+000	1,546717953318966E-002	2,000000000000000E+000	-4,7550285E-003	41	4,2399039E-005