File: Dati/201104_LTO-CNT/CV_LTO_Al_grafite_01_1mVs_08_CV_C03.mpt
EC-Lab ASCII FILE
Nb header lines : 57

Cyclic Voltammetry

Run on channel : 3 (SN 6807)
User :
Electrode connection : standard
Ewe ctrl range : min = 0,00 V, max = 5,00 V
Ewe,I filtering : 50 kHz
Safety Limits :
	Do not start on E overload
Channel : Grounded
Acquisition started on : 11/04/2020 18:19:46
Saved on :
	File : CV_LTO_Al_grafite_01_1mVs_08_CV_C03.mpr
	Directory : C:\Users\labsuperfici\Desktop\Biologic\Users\Prisca Viviani\201104\
	Host : 10.78.33.0
Device : VSP-300 (SN 0638)
Address : USB
EC-Lab for windows v11.31 (software)
Internet server v11.30 (firmware)
Command interpretor v11.31 (firmware)
Electrode material :
Initial state :
Electrolyte :
Comments :
Cable : standard
Reference electrode : SCE Saturated Calomel Electrode (0,241 V)
Electrode surface area : 0,001 cm²
Characteristic mass : 0,001 g
Equivalent Weight : 0,000 g/eq.
Density : 0,000 g/cm3
Cycle Definition : Charge/Discharge alternance
Ei (V)              0,000
vs.                 Eoc
dE/dt               0,700
dE/dt unit          mV/s
E1 (V)              1,000
vs.                 Ref
Step percent        50
N                   10
E range min (V)     0,000
E range max (V)     5,000
I Range             Auto
I Range min         Unset
I Range max         Unset
I Range init        Unset
Bandwidth           8
E2 (V)              2,700
vs.                 Ref
nc cycles           1
Reverse Scan        1
Ef (V)              0,000
vs.                 Eoc

mode	ox/red	error	control changes	counter inc.	time/s	control/V	Ewe/V	<I>/mA	cycle number	(Q-Qo)/C	I Range	P/W
2	1	0	0	0	1,734378475370780E+005	2,7417748E+000	2,7411919E+000	1,638155244290829E-002	1,000000000000000E+000	0,0000000E+000	41	4,4904977E-005
2	1	0	1	0	1,735800040593212E+005	2,6422644E+000	2,6417220E+000	1,424174438350299E-004	1,000000000000000E+000	5,3119636E-004	43	3,7622729E-007
2	0	0	1	0	1,737228026816635E+005	2,5423050E+000	2,5418043E+000	-2,600018419254547E-003	1,000000000000000E+000	3,2147797E-004	42	-6,6087382E-006
2	0	0	1	0	1,738656012040069E+005	2,4423459E+000	2,4418507E+000	-4,253674126280443E-003	1,000000000000000E+000	-1,8454318E-004	42	-1,0386837E-005
2	0	0	1	0	1,740084003263498E+005	2,3423865E+000	2,3419371E+000	-5,520993516339029E-003	1,000000000000000E+000	-8,9129771E-004	42	-1,2929820E-005
2	0	0	1	0	1,741511988486922E+005	2,2424276E+000	2,2419546E+000	-7,118466432467135E-003	1,000000000000000E+000	-1,7935266E-003	42	-1,5959278E-005
2	0	0	1	0	1,742939976710349E+005	2,1424682E+000	2,1420293E+000	-9,735096116265982E-003	1,000000000000000E+000	-2,9890086E-003	42	-2,0852862E-005
2	0	0	1	0	1,744367963933767E+005	2,0425088E+000	2,0419631E+000	-1,405080466586212E-002	1,000000000000000E+000	-4,6769297E-003	41	-2,8691225E-005
2	0	0	1	0	1,745795952157186E+005	1,9425499E+000	1,9419568E+000	-2,049616509993049E-002	1,000000000000000E+000	-7,1257111E-003	41	-3,9802668E-005
2	0	0	1	0	1,747223941380612E+005	1,8425907E+000	1,8420306E+000	-2,952888465620895E-002	1,000000000000000E+000	-1,0674472E-002	41	-5,4393109E-005
2	0	0	1	0	1,748651929604039E+005	1,7426314E+000	1,7421077E+000	-4,141307168872294E-002	1,000000000000000E+000	-1,5707251E-002	41	-7,2146031E-005
2	0	0	1	0	1,750079919827469E+005	1,6426721E+000	1,6421514E+000	-5,865138537528414E-002	1,000000000000000E+000	-2,2756092E-002	41	-9,6314448E-005
2	0	0	1	0	1,751507907050909E+005	1,5427129E+000	1,5422403E+000	-9,783166373946117E-002	1,000000000000000E+000	-3,3467662E-002	41	-1,5087993E-004
2	0	0	1	0	1,752935895274328E+005	1,4427538E+000	1,4421847E+000	-1,918296856909820E-001	1,000000000000000E+000	-5,3996298E-002	40	-2,7665382E-004
2	0	0	1	0	1,754363885497754E+005	1,3427947E+000	1,3421900E+000	-2,003508535347127E-001	1,000000000000000E+000	-8,3630599E-002	40	-2,6890892E-004
2	0	0	1	0	1,755791873721171E+005	1,2428354E+000	1,2422298E+000	-1,515982946444940E-001	1,000000000000000E+000	-1,0859962E-001	40	-1,8831993E-004
2	0	0	1	0	1,757219861944590E+005	1,1428761E+000	1,1422802E+000	-1,224000906238287E-001	1,000000000000000E+000	-1,2794656E-001	40	-1,3981521E-004
2	0	0	1	0	1,758647849168018E+005	1,0429169E+000	1,0423073E+000	-1,094861195534355E-001	1,000000000000000E+000	-1,4434601E-001	40	-1,1411818E-004
2	0	0	1	0	1,760054426388093E+005	1,0555117E+000	1,0549512E+000	-3,124972166828882E-002	1,000000000000000E+000	-1,5570489E-001	41	-3,2966931E-005
2	1	0	1	0	1,761482416611528E+005	1,1554708E+000	1,1548426E+000	3,550456266869548E-003	1,000000000000000E+000	-1,5714702E-001	42	4,1002181E-006
2	1	0	1	0	1,762910406834963E+005	1,2554302E+000	1,2547780E+000	1,599627225365796E-002	1,000000000000000E+000	-1,5563174E-001	41	2,0071771E-005
2	1	0	1	0	1,764338397058379E+005	1,3553894E+000	1,3547382E+000	2,339261280388799E-002	1,000000000000000E+000	-1,5278348E-001	41	3,1690866E-005
2	1	0	1	0	1,765766385281808E+005	1,4553487E+000	1,4546673E+000	3,046466471618381E-002	1,000000000000000E+000	-1,4893895E-001	41	4,4315952E-005
2	1	0	1	0	1,767194375505227E+005	1,5553080E+000	1,5546265E+000	4,141719505013741E-002	1,000000000000000E+000	-1,4390408E-001	41	6,4388267E-005
2	1	0	1	0	1,768622364728644E+005	1,6552670E+000	1,6546030E+000	1,513413825432308E-001	1,000000000000000E+000	-1,3234554E-001	40	2,5040991E-004
2	1	0	1	0	1,770050355952075E+005	1,7552263E+000	1,7545643E+000	2,427473281149366E-001	1,000000000000000E+000	-1,0265270E-001	40	4,2591579E-004
2	1	0	1	0	1,771478346175505E+005	1,8551854E+000	1,8545491E+000	2,013927550136063E-001	1,000000000000000E+000	-6,9747306E-002	40	3,7349274E-004
2	1	0	1	0	1,772906336398940E+005	1,9551448E+000	1,9545321E+000	1,303152843604609E-001	1,000000000000000E+000	-4,6205170E-002	40	2,5470540E-004
2	1	0	1	0	1,774334328622362E+005	2,0551040E+000	2,0545235E+000	8,021091458890917E-002	1,000000000000000E+000	-3,1454243E-002	40	1,6479520E-004
2	1	0	1	0	1,775762316845790E+005	2,1550632E+000	2,1545002E+000	5,063925661215890E-002	1,000000000000000E+000	-2,2292024E-002	40	1,0910229E-004
2	1	0	1	0	1,777191736069424E+005	2,2551227E+000	2,2545042E+000	3,346161852795848E-002	1,000000000000000E+000	-1,6383661E-002	41	7,5439362E-005
2	1	0	1	0	1,778619726292852E+005	2,3550816E+000	2,3544579E+000	2,414785378083290E-002	1,000000000000000E+000	-1,2340740E-002	41	5,6855104E-005
2	1	0	1	0	1,780047715516277E+005	2,4550407E+000	2,4544132E+000	2,003742046117779E-002	1,000000000000000E+000	-9,2188949E-003	41	4,9180107E-005
2	1	0	1	0	1,781475705739711E+005	2,5550003E+000	2,5544102E+000	1,814934581542671E-002	1,000000000000000E+000	-6,4867917E-003	41	4,6360874E-005
2	1	0	1	0	1,782903695963142E+005	2,6549594E+000	2,6543958E+000	1,694651743822861E-002	1,000000000000000E+000	-3,9903573E-003	41	4,4982764E-005
2	1	0	1	1	1,784311698183438E+005	2,6464627E+000	2,6458647E+000	3,162005129105513E-003	2,000000000000000E+000	-2,3883120E-003	42	8,3662380E-006
2	0	0	1	1	1,785739687406857E+005	2,5465033E+000	2,5459378E+000	-1,533775486852881E-003	2,000000000000000E+000	-2,3426451E-003	42	-3,9048969E-006
2	0	0	1	1	1,787167674630276E+005	2,4465444E+000	2,4460030E+000	-3,732333600879285E-003	2,000000000000000E+000	-2,7430232E-003	42	-9,1292986E-006
2	0	0	1	1	1,788595663853704E+005	2,3465850E+000	2,3460956E+000	-5,215846524633194E-003	2,000000000000000E+000	-3,3948948E-003	42	-1,2236875E-005
2	0	0	1	1	1,790023651077128E+005	2,2466259E+000	2,2461195E+000	-6,855635036827276E-003	2,000000000000000E+000	-4,2596054E-003	42	-1,5398575E-005
2	0	0	1	1	1,791451637300560E+005	2,1466665E+000	2,1462247E+000	-9,565978638424399E-003	2,000000000000000E+000	-5,4260208E-003	42	-2,0530741E-005
2	0	0	1	1	1,792879626523997E+005	2,0467072E+000	2,0461252E+000	-1,393526276567358E-002	2,000000000000000E+000	-7,0919525E-003	41	-2,8513292E-005
2	0	0	1	1	1,794307614747416E+005	1,9467479E+000	1,9461668E+000	-2,041985403598373E-002	2,000000000000000E+000	-9,5256902E-003	41	-3,9740440E-005
2	0	0	1	1	1,795735602970845E+005	1,8467888E+000	1,8462385E+000	-2,941173765308469E-002	2,000000000000000E+000	-1,3064822E-002	41	-5,4301083E-005
2	0	0	1	1	1,797163590194263E+005	1,7468299E+000	1,7462775E+000	-4,126347975275715E-002	2,000000000000000E+000	-1,8083792E-002	41	-7,2057483E-005
2	0	0	1	1	1,798591580417681E+005	1,6468706E+000	1,6463207E+000	-5,842917109904999E-002	2,000000000000000E+000	-2,5106965E-002	41	-9,6193151E-005
2	0	0	1	1	1,800019568641109E+005	1,5469115E+000	1,5464256E+000	-9,798565172364015E-002	2,000000000000000E+000	-3,5797145E-002	41	-1,5152752E-004
2	0	0	1	1	1,801447556864531E+005	1,4469521E+000	1,4463784E+000	-1,949929241070638E-001	2,000000000000000E+000	-5,6531515E-002	40	-2,8203355E-004
2	0	0	1	1	1,802875546087967E+005	1,3469930E+000	1,3464231E+000	-2,016207634624934E-001	2,000000000000000E+000	-8,6572744E-002	40	-2,7146685E-004
2	0	0	1	1	1,804303534311401E+005	1,2470336E+000	1,2464489E+000	-1,501300893427535E-001	2,000000000000000E+000	-1,1149953E-001	40	-1,8712948E-004
2	0	0	1	1	1,805731522534820E+005	1,1470745E+000	1,1464427E+000	-1,199298874857589E-001	2,000000000000000E+000	-1,3055630E-001	40	-1,3749274E-004
2	0	0	1	1	1,807159510758249E+005	1,0471152E+000	1,0464735E+000	-1,065833176792483E-001	2,000000000000000E+000	-1,4656182E-001	40	-1,1153662E-004
2	0	0	1	1	1,808568942978757E+005	1,0515134E+000	1,0509293E+000	-3,147930326201870E-002	2,000000000000000E+000	-1,5797809E-001	41	-3,3082524E-005
2	1	0	1	1	1,809996932202182E+005	1,1514727E+000	1,1508089E+000	4,162119308485271E-003	2,000000000000000E+000	-1,5935391E-001	42	4,7898043E-006
2	1	0	1	1	1,811424922425617E+005	1,2514319E+000	1,2507921E+000	1,635951681370268E-002	2,000000000000000E+000	-1,5776409E-001	41	2,0462356E-005
2	1	0	1	1	1,812852911649048E+005	1,3513911E+000	1,3507493E+000	2,346381213392118E-002	2,000000000000000E+000	-1,5488760E-001	41	3,1693726E-005
2	1	0	1	1	1,814280900872471E+005	1,4513502E+000	1,4506876E+000	3,017809337532040E-002	2,000000000000000E+000	-1,5106221E-001	41	4,3778986E-005
2	1	0	1	1	1,815708891095897E+005	1,5513096E+000	1,5506411E+000	4,033147234430523E-002	2,000000000000000E+000	-1,4610779E-001	41	6,2539635E-005
2	1	0	1	1	1,817136881319316E+005	1,6512687E+000	1,6506327E+000	1,402274647666371E-001	2,000000000000000E+000	-1,3547325E-001	40	2,3146404E-004
2	1	0	1	1	1,818564871542735E+005	1,7512280E+000	1,7505814E+000	2,363913631539598E-001	2,000000000000000E+000	-1,0716279E-001	40	4,1382233E-004
2	1	0	1	1	1,819992861766163E+005	1,8511873E+000	1,8505474E+000	2,047980345998859E-001	2,000000000000000E+000	-7,4368253E-002	40	3,7898848E-004
2	1	0	0	1	1,821420850989595E+005	1,9511464E+000	1,9505148E+000	1,349441701082411E-001	2,000000000000000E+000	-5,0202634E-002	40	2,6321059E-004
2	1	0	1	1	1,822848842213028E+005	2,0511053E+000	2,0504951E+000	8,385511330581175E-002	2,000000000000000E+000	-3,4858391E-002	40	1,7194450E-004
2	1	0	1	1	1,824276834436450E+005	2,1510646E+000	2,1504788E+000	5,316335592056620E-002	2,000000000000000E+000	-2,5254697E-002	40	1,1432667E-004
2	1	0	1	1	1,825706250660095E+005	2,2511239E+000	2,2504811E+000	3,522023561983766E-002	2,000000000000000E+000	-1,9037981E-002	41	7,9262478E-005
2	1	0	1	1	1,827134240883514E+005	2,3510830E+000	2,3504663E+000	2,514922606306702E-002	2,000000000000000E+000	-1,4796597E-002	41	5,9112408E-005
2	1	0	1	1	1,828562231106944E+005	2,4510424E+000	2,4504230E+000	2,050515396257113E-002	2,000000000000000E+000	-1,1573293E-002	41	5,0246301E-005
2	1	0	1	1	1,829990221330374E+005	2,5510015E+000	2,5503891E+000	1,834488513775295E-002	2,000000000000000E+000	-8,7980330E-003	41	4,6786594E-005
2	1	0	1	1	1,831418211553805E+005	2,6509612E+000	2,6503813E+000	1,698737811709608E-002	2,000000000000000E+000	-6,2832120E-003	41	4,5023029E-005
2	1	0	0	0	1,832714192756575E+005	2,7417748E+000	2,7411919E+000	1,779793180963572E-002	2,000000000000000E+000	-4,0615788E-003	41	4,8787544E-005