File: Dati/201104_LTO-CNT/CV_LTO_Al_grafite_01_1mVs_03_CV_C03.mpt
EC-Lab ASCII FILE
Nb header lines : 57

Cyclic Voltammetry

Run on channel : 3 (SN 6807)
User :
Electrode connection : standard
Ewe ctrl range : min = 0,00 V, max = 5,00 V
Ewe,I filtering : 50 kHz
Safety Limits :
	Do not start on E overload
Channel : Grounded
Acquisition started on : 11/04/2020 18:19:46
Saved on :
	File : CV_LTO_Al_grafite_01_1mVs_03_CV_C03.mpr
	Directory : C:\Users\labsuperfici\Desktop\Biologic\Users\Prisca Viviani\201104\
	Host : 10.78.33.0
Device : VSP-300 (SN 0638)
Address : USB
EC-Lab for windows v11.31 (software)
Internet server v11.30 (firmware)
Command interpretor v11.31 (firmware)
Electrode material :
Initial state :
Electrolyte :
Comments :
Cable : standard
Reference electrode : SCE Saturated Calomel Electrode (0,241 V)
Electrode surface area : 0,001 cm²
Characteristic mass : 0,001 g
Equivalent Weight : 0,000 g/eq.
Density : 0,000 g/cm3
Cycle Definition : Charge/Discharge alternance
Ei (V)              0,000
vs.                 Eoc
dE/dt               0,200
dE/dt unit          mV/s
E1 (V)              1,000
vs.                 Ref
Step percent        50
N                   10
E range min (V)     0,000
E range max (V)     5,000
I Range             Auto
I Range min         Unset
I Range max         Unset
I Range init        Unset
Bandwidth           8
E2 (V)              2,700
vs.                 Ref
nc cycles           1
Reverse Scan        1
Ef (V)              0,000
vs.                 Eoc

mode	ox/red	error	control changes	counter inc.	time/s	control/V	Ewe/V	<I>/mA	cycle number	(Q-Qo)/C	I Range	P/W
2	1	0	1	0	7,362548889693129E+004	2,7417748E+000	2,7412071E+000	4,110829904675484E-003	1,000000000000000E+000	0,0000000E+000	42	1,1268637E-005
2	0	0	1	0	7,412353407908278E+004	2,6421645E+000	2,6416411E+000	-1,502989025060763E-004	1,000000000000000E+000	4,1263097E-004	43	-3,9703576E-007
2	0	0	1	0	7,462332816088956E+004	2,5422053E+000	2,5416899E+000	-9,138091801007657E-004	1,000000000000000E+000	9,5711730E-005	42	-2,3226196E-006
2	0	0	1	0	7,512312234264519E+004	2,4422460E+000	2,4417293E+000	-1,427757133929963E-003	1,000000000000000E+000	-5,2689371E-004	42	-3,4861964E-006
2	0	0	1	0	7,562291652443772E+004	2,3422871E+000	2,3417833E+000	-1,850853264061918E-003	1,000000000000000E+000	-1,3813301E-003	42	-4,3342970E-006
2	0	0	1	0	7,612271060621078E+004	2,2423277E+000	2,2417998E+000	-2,358021000719270E-003	1,000000000000000E+000	-2,4642206E-003	42	-5,2862110E-006
2	0	0	1	0	7,662250518798479E+004	2,1423683E+000	2,1418657E+000	-3,176154973931589E-003	1,000000000000000E+000	-3,8599006E-003	42	-6,8028976E-006
2	0	0	1	0	7,712229896977590E+004	2,0424092E+000	2,0419028E+000	-4,574099081822852E-003	1,000000000000000E+000	-5,7969741E-003	42	-9,3398658E-006
2	0	0	1	0	7,762209435153339E+004	1,9424499E+000	1,9419760E+000	-6,753889303808922E-003	1,000000000000000E+000	-8,6244177E-003	42	-1,3115890E-005
2	0	0	1	0	7,812188993333903E+004	1,8424908E+000	1,8420445E+000	-9,660114496657275E-003	1,000000000000000E+000	-1,2721156E-002	42	-1,7794360E-005
2	0	0	1	0	7,862168571508012E+004	1,7425317E+000	1,7419919E+000	-1,357611557892298E-002	1,000000000000000E+000	-1,8498302E-002	41	-2,3649483E-005
2	0	0	1	0	7,912148119689897E+004	1,6425724E+000	1,6420475E+000	-1,989695272065822E-002	1,000000000000000E+000	-2,6703615E-002	41	-3,2671742E-005
2	0	0	1	0	7,962127687863586E+004	1,5426130E+000	1,5421067E+000	-4,360713527581328E-002	1,000000000000000E+000	-4,0859416E-002	41	-6,7246860E-005
2	0	0	1	0	8,012107256045030E+004	1,4426538E+000	1,4421898E+000	-7,675357246359271E-002	1,000000000000000E+000	-7,6200657E-002	41	-1,1069322E-004
2	0	0	1	0	8,062086824219988E+004	1,3426946E+000	1,3421657E+000	-4,916255967854466E-002	1,000000000000000E+000	-1,0673197E-001	41	-6,5984299E-005
2	0	0	1	0	8,112066372399672E+004	1,2427354E+000	1,2421875E+000	-3,761281515213338E-002	1,000000000000000E+000	-1,2803924E-001	41	-4,6722169E-005
2	0	0	1	0	8,162045950576232E+004	1,1427761E+000	1,1422281E+000	-3,338696055823227E-002	1,000000000000000E+000	-1,4553547E-001	41	-3,8135524E-005
2	0	0	1	0	8,212025508754351E+004	1,0428170E+000	1,0422612E+000	-3,555449518681053E-002	1,000000000000000E+000	-1,6256070E-001	41	-3,7057071E-005
2	0	0	1	0	8,261205517123250E+004	1,0555118E+000	1,0549648E+000	-1,003176480502141E-002	1,000000000000000E+000	-1,7569001E-001	41	-1,0583159E-005
2	1	0	1	0	8,311185255296971E+004	1,1554710E+000	1,1548834E+000	3,522120857856609E-004	1,000000000000000E+000	-1,7755881E-001	43	4,0676389E-007
2	1	0	1	0	8,361164943478815E+004	1,2554303E+000	1,2547771E+000	4,675089065599047E-003	1,000000000000000E+000	-1,7617565E-001	42	5,8661944E-006
2	1	0	1	0	8,411144671652711E+004	1,3553894E+000	1,3547219E+000	7,588112742722888E-003	1,000000000000000E+000	-1,7304379E-001	42	1,0279782E-005
2	1	0	1	0	8,461124339833518E+004	1,4553488E+000	1,4547772E+000	1,018622967104460E-002	1,000000000000000E+000	-1,6858757E-001	41	1,4818695E-005
2	1	0	1	0	8,511104078008991E+004	1,5553080E+000	1,5547019E+000	1,434775770636204E-002	1,000000000000000E+000	-1,6263892E-001	41	2,2306487E-005
2	1	0	1	0	8,561083766188112E+004	1,6552672E+000	1,6546210E+000	7,662263565081412E-002	1,000000000000000E+000	-1,4179571E-001	41	1,2678142E-004
2	1	0	1	0	8,611063524365262E+004	1,7552264E+000	1,7546210E+000	6,692146617963568E-002	1,000000000000000E+000	-1,0262854E-001	41	1,1742181E-004
2	1	0	1	0	8,661043222542689E+004	1,8551855E+000	1,8545903E+000	4,259348275387603E-002	1,000000000000000E+000	-7,5644799E-002	41	7,8993457E-005
2	1	0	1	0	8,711022960721562E+004	1,9551449E+000	1,9545612E+000	2,699003769458905E-002	1,000000000000000E+000	-5,8554478E-002	41	5,2753683E-005
2	1	0	1	0	8,761002708897321E+004	2,0551038E+000	2,0545404E+000	1,792127047513412E-002	1,000000000000000E+000	-4,7510713E-002	41	3,6819973E-005
2	1	0	1	0	8,810982437077770E+004	2,1550634E+000	2,1545136E+000	1,211619803327813E-002	1,000000000000000E+000	-4,0075779E-002	41	2,6104513E-005
2	1	0	1	0	8,860962135251914E+004	2,2550223E+000	2,2544415E+000	8,889268370361567E-003	1,000000000000000E+000	-3,4905225E-002	41	2,0040336E-005
2	1	0	1	0	8,910941873433697E+004	2,3549817E+000	2,3544195E+000	7,330147439341315E-003	1,000000000000000E+000	-3,0877361E-002	41	1,7258242E-005
2	1	0	1	0	8,960921621607291E+004	2,4549408E+000	2,4543910E+000	6,731446215139464E-003	1,000000000000000E+000	-2,7365280E-002	41	1,6521601E-005
2	1	0	1	0	9,010901289788773E+004	2,5548999E+000	2,5543261E+000	6,391650939175850E-003	1,000000000000000E+000	-2,4048703E-002	41	1,6326361E-005
2	1	0	1	0	9,060880977963610E+004	2,6548591E+000	2,6543245E+000	6,214972965940632E-003	1,000000000000000E+000	-2,0894129E-002	41	1,6496555E-005
2	1	0	1	1	9,110210926295936E+004	2,6464627E+000	2,6459146E+000	1,231901371014693E-003	2,000000000000000E+000	-1,8790027E-002	42	3,2595058E-006
2	0	0	1	1	9,160190374474856E+004	2,5465038E+000	2,5460024E+000	-4,114486239588616E-004	2,000000000000000E+000	-1,8698841E-002	43	-1,0475492E-006
2	0	0	1	1	9,210169752650824E+004	2,4465442E+000	2,4459984E+000	-1,114727007250640E-003	2,000000000000000E+000	-1,9124780E-002	42	-2,7266206E-006
2	0	0	1	1	9,260149210831360E+004	2,3465850E+000	2,3460641E+000	-1,600284522350007E-003	2,000000000000000E+000	-1,9836888E-002	42	-3,7543700E-006
2	0	0	1	1	9,310128579005529E+004	2,2466257E+000	2,2460697E+000	-2,171874672980752E-003	2,000000000000000E+000	-2,0804115E-002	42	-4,8781817E-006
2	0	0	1	1	9,360108037187485E+004	2,1466663E+000	2,1461475E+000	-3,064295067403503E-003	2,000000000000000E+000	-2,2120595E-002	42	-6,5764293E-006
2	0	0	1	1	9,410087415361119E+004	2,0467074E+000	2,0461819E+000	-4,539973763176150E-003	2,000000000000000E+000	-2,4024397E-002	42	-9,2896125E-006
2	0	0	1	1	9,460066953542503E+004	1,9467484E+000	1,9462512E+000	-6,706097358188667E-003	2,000000000000000E+000	-2,6827864E-002	42	-1,3051750E-005
2	0	0	1	1	9,510046501717507E+004	1,8467889E+000	1,8463700E+000	-9,693711747547462E-003	2,000000000000000E+000	-3,0930221E-002	42	-1,7898179E-005
2	0	0	1	1	9,560026059897244E+004	1,7468299E+000	1,7462451E+000	-1,371389607861730E-002	2,000000000000000E+000	-3,6766656E-002	41	-2,3947825E-005
2	0	0	1	1	9,610005638073757E+004	1,6468705E+000	1,6463102E+000	-2,046935254912593E-002	2,000000000000000E+000	-4,5139804E-002	41	-3,3698903E-005
2	0	0	1	1	9,659985206251970E+004	1,5469115E+000	1,5463594E+000	-4,570303582337987E-002	2,000000000000000E+000	-5,9894726E-002	41	-7,0673319E-005
2	0	0	1	1	9,709964764430112E+004	1,4469521E+000	1,4464531E+000	-8,875171029616613E-002	2,000000000000000E+000	-9,9137343E-002	41	-1,2837519E-004
2	0	0	1	1	9,759944342606550E+004	1,3469929E+000	1,3464381E+000	-5,318252029629442E-002	2,000000000000000E+000	-1,3350208E-001	41	-7,1606970E-005
2	0	0	1	1	9,809923860786459E+004	1,2470337E+000	1,2464639E+000	-3,774932152626320E-002	2,000000000000000E+000	-1,5570544E-001	41	-4,7053167E-005
2	0	0	1	1	9,859903438961320E+004	1,1470745E+000	1,1464888E+000	-3,247309131443060E-002	2,000000000000000E+000	-1,7295574E-001	41	-3,7230035E-005
2	0	0	1	1	9,909882997142710E+004	1,0471152E+000	1,0465196E+000	-3,482674550302589E-002	2,000000000000000E+000	-1,8951261E-001	41	-3,6446872E-005
2	0	0	1	1	9,959212965470902E+004	1,0515133E+000	1,0508809E+000	-8,379569652290503E-003	2,000000000000000E+000	-2,0259093E-001	41	-8,8059296E-006
2	1	0	1	1	1,000919270365057E+005	1,1514727E+000	1,1508458E+000	2,271915516103496E-003	2,000000000000000E+000	-2,0349845E-001	42	2,6146245E-006
2	1	0	1	1	1,005917239182713E+005	1,2514318E+000	1,2507591E+000	6,320060390851159E-003	2,000000000000000E+000	-2,0121865E-001	42	7,9048732E-006
2	1	0	1	1	1,010915209000523E+005	1,3513911E+000	1,3506985E+000	8,980185656118619E-003	2,000000000000000E+000	-1,9733253E-001	42	1,2129523E-005
2	1	0	1	1	1,015913177818351E+005	1,4513503E+000	1,4507281E+000	1,150100005332860E-002	2,000000000000000E+000	-1,9219135E-001	41	1,6684824E-005
2	1	0	1	1	1,020911152635987E+005	1,5513096E+000	1,5506840E+000	1,572496274581377E-002	2,000000000000000E+000	-1,8558674E-001	41	2,4384448E-005
2	1	0	1	1	1,025909121453979E+005	1,6512690E+000	1,6505585E+000	9,332582476197193E-002	2,000000000000000E+000	-1,6102253E-001	41	1,5403974E-004
2	1	0	1	1	1,030907097271455E+005	1,7512280E+000	1,7505457E+000	7,263343064939373E-002	2,000000000000000E+000	-1,1557945E-001	41	1,2714815E-004
2	1	0	1	1	1,035905066089600E+005	1,8511873E+000	1,8505636E+000	4,141681728083679E-002	2,000000000000000E+000	-8,7764129E-002	41	7,6644457E-005
2	1	0	1	1	1,040903037906965E+005	1,9511467E+000	1,9505543E+000	2,462719764013399E-002	2,000000000000000E+000	-7,1783476E-002	41	4,8036683E-005
2	1	0	1	1	1,045901012725145E+005	2,0511055E+000	2,0505366E+000	1,579508050462330E-002	2,000000000000000E+000	-6,1830126E-002	41	3,2388391E-005
2	1	0	1	1	1,050898991542563E+005	2,1510649E+000	2,1505055E+000	1,080135285346789E-002	2,000000000000000E+000	-5,5253953E-002	41	2,3228369E-005
2	1	0	1	1	1,055896954360605E+005	2,2510240E+000	2,2504425E+000	8,297724470375731E-003	2,000000000000000E+000	-5,0522588E-002	41	1,8673552E-005
2	1	0	1	1	1,060894934178195E+005	2,3509831E+000	2,3504224E+000	6,999778373306648E-003	2,000000000000000E+000	-4,6710897E-002	41	1,6452435E-005
2	1	0	1	1	1,065892897996076E+005	2,4509425E+000	2,4503622E+000	6,533503390241252E-003	2,000000000000000E+000	-4,3330938E-002	41	1,6009450E-005
2	1	0	1	1	1,070890876813822E+005	2,5509019E+000	2,5503180E+000	6,223349036188916E-003	2,000000000000000E+000	-4,0097047E-002	41	1,5871519E-005
2	1	0	1	1	1,075888839631537E+005	2,6508608E+000	2,6502800E+000	6,121489885930920E-003	2,000000000000000E+000	-3,7009161E-002	41	1,6223663E-005
2	1	0	0	0	1,080429767557423E+005	2,7417748E+000	2,7411919E+000	6,895597480858363E-003	2,000000000000000E+000	-3,4113195E-002	41	1,8902156E-005