File: Dati/210311/CV_LTO_MX_10 layer_grafite nuova_0.1_1mVs_05_CV_C03.mpt
EC-Lab ASCII FILE
Nb header lines : 57

Cyclic Voltammetry

Run on channel : 3 (SN 6807)
User :
Electrode connection : standard
Ewe ctrl range : min = 0,00 V, max = 5,00 V
Ewe,I filtering : 50 kHz
Safety Limits :
	Do not start on E overload
Channel : Grounded
Acquisition started on : 03/11/2021 17:24:33
Saved on :
	File : CV_LTO_MX_10 layer_grafite nuova_0.1_1mVs_05_CV_C03.mpr
	Directory : C:\Users\labsuperfici\Desktop\Biologic\Users\Prisca Viviani\210311\
	Host : 169.254.114.127
Device : VSP-300 (SN 0638)
Address : USB
EC-Lab for windows v11.31 (software)
Internet server v11.30 (firmware)
Command interpretor v11.31 (firmware)
Electrode material :
Initial state :
Electrolyte :
Comments :
Cable : standard
Reference electrode : SCE Saturated Calomel Electrode (0,241 V)
Electrode surface area : 0,001 cm²
Characteristic mass : 0,001 g
Equivalent Weight : 0,000 g/eq.
Density : 0,000 g/cm3
Cycle Definition : Charge/Discharge alternance
Ei (V)              0,000
vs.                 Eoc
dE/dt               0,500
dE/dt unit          mV/s
E1 (V)              1,000
vs.                 Ref
Step percent        50
N                   10
E range min (V)     0,000
E range max (V)     5,000
I Range             Auto
I Range min         Unset
I Range max         Unset
I Range init        Unset
Bandwidth           8
E2 (V)              3,000
vs.                 Ref
nc cycles           0
Reverse Scan        1
Ef (V)              0,000
vs.                 Eoc

mode	ox/red	error	control changes	counter inc.	time/s	control/V	Ewe/V	<I>/mA	cycle number	(Q-Qo)/C	I Range	P/W
2	0	0	1	0	8,333475760026147E+004	1,7222385E+000	1,7216814E+000	-2,481934428215027E-002	1,000000000000000E+000	0,0000000E+000	41	-4,2731001E-005
2	0	0	1	0	8,344981177306379E+004	1,6647110E+000	1,6641549E+000	-3,147397115018663E-002	1,000000000000000E+000	-3,1737890E-003	41	-5,2377563E-005
2	0	0	1	0	8,356576534563556E+004	1,6067340E+000	1,6061959E+000	-4,094178052711017E-002	1,000000000000000E+000	-7,3535056E-003	41	-6,5760520E-005
2	0	0	1	0	8,368171881818806E+004	1,5487573E+000	1,5482106E+000	-5,443908321542895E-002	1,000000000000000E+000	-1,2840168E-002	41	-8,4283165E-005
2	0	0	1	0	8,379767239074263E+004	1,4907804E+000	1,4902537E+000	-7,484379474496000E-002	1,000000000000000E+000	-2,0265121E-002	41	-1,1153624E-004
2	0	0	1	0	8,391362616333109E+004	1,4328036E+000	1,4323237E+000	-1,003882546738806E-001	1,000000000000000E+000	-3,0443966E-002	41	-1,4378848E-004
2	0	0	1	0	8,402957973592146E+004	1,3748266E+000	1,3742228E+000	-1,202974595236281E-001	1,000000000000000E+000	-4,3329831E-002	40	-1,6531551E-004
2	0	0	1	0	8,414553320849943E+004	1,3168499E+000	1,3162537E+000	-1,324454958172967E-001	1,000000000000000E+000	-5,8058180E-002	40	-1,7433187E-004
2	0	0	1	0	8,426148678105208E+004	1,2588732E+000	1,2583175E+000	-1,373983625427230E-001	1,000000000000000E+000	-7,3812358E-002	40	-1,7289077E-004
2	0	0	1	0	8,437744035360543E+004	1,2008965E+000	1,2002891E+000	-1,339590087684106E-001	1,000000000000000E+000	-8,9585535E-002	40	-1,6078954E-004
2	0	0	1	0	8,449339382618945E+004	1,1429197E+000	1,1423341E+000	-1,289164389069362E-001	1,000000000000000E+000	-1,0483873E-001	40	-1,4726564E-004
2	0	0	1	0	8,460934739877982E+004	1,0849428E+000	1,0843424E+000	-1,237307081589520E-001	1,000000000000000E+000	-1,1949300E-001	40	-1,3416645E-004
2	0	0	1	0	8,472530117136333E+004	1,0269659E+000	1,0263771E+000	-1,192555159070923E-001	1,000000000000000E+000	-1,3357930E-001	40	-1,2240112E-004
2	0	0	1	0	8,483825694463064E+004	1,0295650E+000	1,0289524E+000	-9,204479803831123E-002	1,000000000000000E+000	-1,4599352E-001	40	-9,4709714E-005
2	0	0	1	0	8,495421051718362E+004	1,0875417E+000	1,0869243E+000	-6,799119745380094E-002	1,000000000000000E+000	-1,5513562E-001	40	-7,3901283E-005
2	0	0	1	0	8,507016428975028E+004	1,1455185E+000	1,1448866E+000	-5,255729551370880E-002	1,000000000000000E+000	-1,6206668E-001	40	-6,0172144E-005
2	0	0	1	0	8,518611806234147E+004	1,2034955E+000	1,2029325E+000	-4,107063839118297E-002	1,000000000000000E+000	-1,6745880E-001	41	-4,9405204E-005
2	0	0	1	0	8,530207173493307E+004	1,2614722E+000	1,2609015E+000	-3,183968373599969E-002	1,000000000000000E+000	-1,7166309E-001	41	-4,0146704E-005
2	0	0	1	0	8,541802530749456E+004	1,3194489E+000	1,3188633E+000	-2,389330203755277E-002	1,000000000000000E+000	-1,7487888E-001	41	-3,1511998E-005
2	0	0	1	0	8,553397898004693E+004	1,3774258E+000	1,3768423E+000	-1,637289456682214E-002	1,000000000000000E+000	-1,7720434E-001	41	-2,2542894E-005
2	0	0	1	0	8,564993285260862E+004	1,4354025E+000	1,4347895E+000	-8,689606588801807E-003	1,000000000000000E+000	-1,7865625E-001	41	-1,2467756E-005
2	1	0	1	0	8,576588652519928E+004	1,4933794E+000	1,4927508E+000	1,351613481270383E-004	1,000000000000000E+000	-1,7916028E-001	43	2,0176221E-007
2	1	0	1	0	8,588184029779071E+004	1,5513561E+000	1,5507450E+000	1,200000155008624E-002	1,000000000000000E+000	-1,7849679E-001	41	1,8608942E-005
2	1	0	1	0	8,599779397035786E+004	1,6093332E+000	1,6086991E+000	3,496743438287303E-002	1,000000000000000E+000	-1,7600328E-001	41	5,6252080E-005
2	1	0	1	0	8,611374784291047E+004	1,6673099E+000	1,6666138E+000	7,558699749616093E-002	1,000000000000000E+000	-1,6961460E-001	41	1,2597433E-004
2	1	0	1	0	8,622970161546674E+004	1,7252865E+000	1,7246820E+000	1,135973862597071E-001	1,000000000000000E+000	-1,5857649E-001	40	1,9591936E-004
2	1	0	1	0	8,634565518805687E+004	1,7832633E+000	1,7826608E+000	1,429647031838597E-001	1,000000000000000E+000	-1,4359023E-001	40	2,5485759E-004
2	1	0	1	0	8,646160906064833E+004	1,8412404E+000	1,8406347E+000	1,612529309988646E-001	1,000000000000000E+000	-1,2583631E-001	40	2,9680773E-004
2	1	0	1	0	8,657756263322133E+004	1,8992171E+000	1,8985995E+000	1,681863442238529E-001	1,000000000000000E+000	-1,0661618E-001	40	3,1931850E-004
2	1	0	1	0	8,669351640577422E+004	1,9571940E+000	1,9565961E+000	1,622323916903676E-001	1,000000000000000E+000	-8,7320931E-002	40	3,1742328E-004
2	1	0	1	0	8,680946997832786E+004	2,0151708E+000	2,0145743E+000	1,426748259743675E-001	1,000000000000000E+000	-6,9510601E-002	40	2,8742902E-004
2	1	0	1	0	8,692542415091512E+004	2,0731475E+000	2,0725694E+000	1,122257467820281E-001	1,000000000000000E+000	-5,4649439E-002	40	2,3259564E-004
2	1	0	1	0	8,704137812350597E+004	2,1311245E+000	2,1305370E+000	8,097467199270314E-002	1,000000000000000E+000	-4,3516293E-002	40	1,7251953E-004
2	1	0	1	0	8,715733179608500E+004	2,1891012E+000	2,1885164E+000	6,060471390673447E-002	1,000000000000000E+000	-3,5401996E-002	40	1,3263441E-004
2	1	0	1	0	8,727348586859007E+004	2,2471778E+000	2,2465448E+000	4,760833078422252E-002	1,000000000000000E+000	-2,9169643E-002	41	1,0695425E-004
2	1	0	1	0	8,738943934114324E+004	2,3051548E+000	2,3045332E+000	3,953081086737192E-002	1,000000000000000E+000	-2,4150046E-002	41	9,1100068E-005
2	1	0	1	0	8,750539341372577E+004	2,3631318E+000	2,3625107E+000	3,450199648380980E-002	1,000000000000000E+000	-1,9870283E-002	41	8,1511338E-005
2	1	0	1	0	8,762134698631754E+004	2,4211085E+000	2,4205329E+000	3,128543795750560E-002	1,000000000000000E+000	-1,6067063E-002	41	7,5727432E-005
2	1	0	1	0	8,773730105890101E+004	2,4790850E+000	2,4784653E+000	2,916157980676024E-002	1,000000000000000E+000	-1,2557955E-002	41	7,2275965E-005
2	1	0	1	0	8,785325513145258E+004	2,5370619E+000	2,5364623E+000	2,690502481057749E-002	1,000000000000000E+000	-9,3022007E-003	41	6,8243578E-005
2	1	0	1	0	8,796920870400616E+004	2,5950387E+000	2,5944076E+000	2,465994562614382E-002	1,000000000000000E+000	-6,3057300E-003	41	6,3977946E-005
2	1	0	1	0	8,808516277658322E+004	2,6530156E+000	2,6524267E+000	2,300773649084775E-002	1,000000000000000E+000	-3,5377545E-003	41	6,1026334E-005
2	1	0	1	0	8,820111644917488E+004	2,7109926E+000	2,7104127E+000	2,120660541027142E-002	1,000000000000000E+000	-9,7095495E-004	41	5,7478654E-005
2	1	0	1	0	8,831707052176318E+004	2,7689691E+000	2,7683797E+000	1,979739024617599E-002	1,000000000000000E+000	1,4064547E-003	41	5,4806693E-005
2	1	0	1	0	8,843302429431642E+004	2,8269460E+000	2,8263369E+000	1,926794737421855E-002	1,000000000000000E+000	3,6712207E-003	41	5,4457709E-005
2	1	0	1	0	8,854897796686995E+004	2,8849227E+000	2,8842912E+000	1,894025767647967E-002	1,000000000000000E+000	5,8959541E-003	41	5,4629218E-005
2	1	0	1	0	8,866493203944131E+004	2,9428997E+000	2,9422982E+000	1,830665063223161E-002	1,000000000000000E+000	8,0685373E-003	41	5,3863623E-005
2	1	0	0	1	8,877918651243125E+004	3,0000279E+000	2,9994500E+000	1,800229704615941E-002	1,000000000000000E+000	1,0141051E-002	41	5,3996988E-005
2	1	0	1	1	8,889424048523337E+004	2,9425001E+000	2,9419446E+000	7,831864032362433E-003	1,000000000000000E+000	1,1379182E-002	41	2,3040910E-005
2	1	0	1	1	8,901019435779942E+004	2,8845229E+000	2,8838668E+000	4,871564366656117E-003	1,000000000000000E+000	1,2091448E-002	42	1,4048943E-005
2	1	0	1	1	8,912614773035300E+004	2,8265462E+000	2,8259358E+000	3,174009837971545E-003	1,000000000000000E+000	1,2542802E-002	42	8,9695477E-006
2	1	0	1	1	8,924210140290938E+004	2,7685695E+000	2,7679813E+000	2,159854910116742E-003	1,000000000000000E+000	1,2839790E-002	42	5,9784379E-006
2	1	0	1	1	8,935805487550038E+004	2,7105927E+000	2,7099609E+000	1,438517769672687E-003	1,000000000000000E+000	1,3039967E-002	42	3,8983271E-006
2	1	0	1	1	8,947400854809157E+004	2,6526158E+000	2,6520278E+000	6,681633357362472E-004	1,000000000000000E+000	1,3157649E-002	42	1,7719877E-006
2	0	0	1	1	8,958996212066349E+004	2,5946388E+000	2,5940666E+000	-3,784110229160661E-004	1,000000000000000E+000	1,3163302E-002	43	-9,8162343E-007
2	0	0	1	1	8,970591549321718E+004	2,5366621E+000	2,5360649E+000	-9,432972855073036E-004	1,000000000000000E+000	1,3081818E-002	42	-2,3922630E-006
2	0	0	1	1	8,982186936577037E+004	2,4786854E+000	2,4780929E+000	-1,622965690952893E-003	1,000000000000000E+000	1,2926532E-002	42	-4,0218597E-006
2	0	0	1	1	8,993782263835799E+004	2,4207087E+000	2,4201655E+000	-2,327123280354157E-003	1,000000000000000E+000	1,2690165E-002	42	-5,6320237E-006
2	0	0	1	1	9,005377641094988E+004	2,3627319E+000	2,3621540E+000	-2,792726270693933E-003	1,000000000000000E+000	1,2383887E-002	42	-6,5968497E-006
2	0	0	1	1	9,016972988352738E+004	2,3047552E+000	2,3041568E+000	-3,280288510222273E-003	1,000000000000000E+000	1,2026302E-002	42	-7,5582989E-006
2	0	0	1	1	9,028568355608080E+004	2,2467782E+000	2,2462227E+000	-3,924953789551683E-003	1,000000000000000E+000	1,1602774E-002	42	-8,8163206E-006
2	0	0	1	1	9,040163712863345E+004	2,1888013E+000	2,1882517E+000	-4,793241347871027E-003	1,000000000000000E+000	1,1092145E-002	42	-1,0488819E-005
2	0	0	1	1	9,051759070121637E+004	2,1308248E+000	2,1302776E+000	-5,908072797802713E-003	1,000000000000000E+000	1,0467752E-002	42	-1,2585835E-005
2	0	0	1	1	9,063354437380773E+004	2,0728478E+000	2,0723462E+000	-7,347229294987559E-003	1,000000000000000E+000	9,6956789E-003	42	-1,5226003E-005
2	0	0	1	1	9,074949784639128E+004	2,0148711E+000	2,0143418E+000	-9,204480294585482E-003	1,000000000000000E+000	8,7333797E-003	42	-1,8540970E-005
2	0	0	1	1	9,086545171894378E+004	1,9568939E+000	1,9563032E+000	-1,129564831854373E-002	1,000000000000000E+000	7,5379931E-003	41	-2,2097713E-005
2	0	0	1	1	9,098140519149683E+004	1,8989172E+000	1,8983024E+000	-1,382918781856105E-002	1,000000000000000E+000	6,0800263E-003	41	-2,6251981E-005
2	0	0	1	1	9,109735876407416E+004	1,8409405E+000	1,8403447E+000	-1,707957480215140E-002	1,000000000000000E+000	4,2873076E-003	41	-3,1432304E-005
2	0	0	1	1	9,121331223666592E+004	1,7829635E+000	1,7823411E+000	-2,159504872919260E-002	1,000000000000000E+000	2,0536126E-003	41	-3,8489743E-005
2	0	0	1	1	9,132926590925432E+004	1,7249868E+000	1,7243941E+000	-2,758490686601764E-002	1,000000000000000E+000	-7,9632690E-004	41	-4,7567250E-005
2	0	0	1	1	9,133474510794831E+004	1,7222385E+000	1,7216928E+000	-2,789777831438883E-002	1,000000000000000E+000	-9,4870938E-004	41	-4,8031405E-005