File: Dati/210311/CV_LTO_MX_10 layer_grafite nuova_0.1_1mVs_02_CV_C03.mpt
EC-Lab ASCII FILE
Nb header lines : 57

Cyclic Voltammetry

Run on channel : 3 (SN 6807)
User :
Electrode connection : standard
Ewe ctrl range : min = 0,00 V, max = 5,00 V
Ewe,I filtering : 50 kHz
Safety Limits :
	Do not start on E overload
Channel : Grounded
Acquisition started on : 03/11/2021 17:24:33
Saved on :
	File : CV_LTO_MX_10 layer_grafite nuova_0.1_1mVs_02_CV_C03.mpr
	Directory : C:\Users\labsuperfici\Desktop\Biologic\Users\Prisca Viviani\210311\
	Host : 169.254.114.127
Device : VSP-300 (SN 0638)
Address : USB
EC-Lab for windows v11.31 (software)
Internet server v11.30 (firmware)
Command interpretor v11.31 (firmware)
Electrode material :
Initial state :
Electrolyte :
Comments :
Cable : standard
Reference electrode : SCE Saturated Calomel Electrode (0,241 V)
Electrode surface area : 0,001 cm²
Characteristic mass : 0,001 g
Equivalent Weight : 0,000 g/eq.
Density : 0,000 g/cm3
Cycle Definition : Charge/Discharge alternance
Ei (V)              0,000
vs.                 Eoc
dE/dt               0,200
dE/dt unit          mV/s
E1 (V)              1,000
vs.                 Ref
Step percent        50
N                   10
E range min (V)     0,000
E range max (V)     5,000
I Range             Auto
I Range min         Unset
I Range max         Unset
I Range init        Unset
Bandwidth           8
E2 (V)              3,000
vs.                 Ref
nc cycles           0
Reverse Scan        1
Ef (V)              0,000
vs.                 Eoc

mode	ox/red	error	control changes	counter inc.	time/s	control/V	Ewe/V	<I>/mA	cycle number	(Q-Qo)/C	I Range	P/W
2	0	0	1	0	4,000042436286039E+004	1,7222385E+000	1,7216661E+000	-9,297918528318405E-003	1,000000000000000E+000	0,0000000E+000	41	-1,6007911E-005
2	0	0	1	0	4,028805946339620E+004	1,6647112E+000	1,6640959E+000	-1,623628880137248E-002	1,000000000000000E+000	-3,7981283E-003	41	-2,7018741E-005
2	0	0	1	0	4,057794346393633E+004	1,6067343E+000	1,6061289E+000	-2,310533373390572E-002	1,000000000000000E+000	-9,4598280E-003	41	-3,7110145E-005
2	0	0	1	0	4,086782696447615E+004	1,5487574E+000	1,5481418E+000	-3,416592509297178E-002	1,000000000000000E+000	-1,7629866E-002	41	-5,2893698E-005
2	0	0	1	0	4,115771096501601E+004	1,4907806E+000	1,4902424E+000	-5,488900314322687E-002	1,000000000000000E+000	-3,0278817E-002	41	-8,1797916E-005
2	0	0	1	0	4,144759476555593E+004	1,4328036E+000	1,4322658E+000	-7,472407936993242E-002	1,000000000000000E+000	-4,9372453E-002	41	-1,0702474E-004
2	0	0	1	0	4,173747876609594E+004	1,3748269E+000	1,3743191E+000	-8,307551461708784E-002	1,000000000000000E+000	-7,2473340E-002	41	-1,1417227E-004
2	0	0	1	0	4,202736256663594E+004	1,3168501E+000	1,3163055E+000	-8,336762246385576E-002	1,000000000000000E+000	-9,6897833E-002	41	-1,0973726E-004
2	0	0	1	0	4,231724626717588E+004	1,2588735E+000	1,2583200E+000	-7,647698962677829E-002	1,000000000000000E+000	-1,2007317E-001	41	-9,6232521E-005
2	0	0	1	0	4,260713006771589E+004	1,2008965E+000	1,2003269E+000	-7,020153029843945E-002	1,000000000000000E+000	-1,4132279E-001	41	-8,4264786E-005
2	0	0	1	0	4,289701376825583E+004	1,1429197E+000	1,1423415E+000	-6,475765993051247E-002	1,000000000000000E+000	-1,6087532E-001	41	-7,3975360E-005
2	0	0	1	0	4,318689776879572E+004	1,0849429E+000	1,0843621E+000	-6,033375816484815E-002	1,000000000000000E+000	-1,7899369E-001	41	-6,5423643E-005
2	0	0	1	0	4,347678156933567E+004	1,0269661E+000	1,0263755E+000	-5,724937563979204E-002	1,000000000000000E+000	-1,9602343E-001	41	-5,8759357E-005
2	0	0	1	0	4,375916996986174E+004	1,0295650E+000	1,0289878E+000	-4,215863646903362E-002	1,000000000000000E+000	-2,1067731E-001	41	-4,3380722E-005
2	0	0	1	0	4,404905497040163E+004	1,0875417E+000	1,0869370E+000	-3,002196765124740E-002	1,000000000000000E+000	-2,2094113E-001	41	-3,2631986E-005
2	0	0	1	0	4,433893957094161E+004	1,1455187E+000	1,1449362E+000	-2,225804155285740E-002	1,000000000000000E+000	-2,2843398E-001	41	-2,5484038E-005
2	0	0	1	0	4,462882457148150E+004	1,2034956E+000	1,2028854E+000	-1,673546488183364E-002	1,000000000000000E+000	-2,3402923E-001	41	-2,0130847E-005
2	0	0	1	0	4,491870887202164E+004	1,2614723E+000	1,2608522E+000	-1,247720946991307E-002	1,000000000000000E+000	-2,3822615E-001	41	-1,5731917E-005
2	0	0	1	0	4,520859347256136E+004	1,3194492E+000	1,3188261E+000	-8,962600159046596E-003	1,000000000000000E+000	-2,4130823E-001	41	-1,1820111E-005
2	0	0	1	0	4,549847817310132E+004	1,3774258E+000	1,3767949E+000	-5,716500252968597E-003	1,000000000000000E+000	-2,4341913E-001	41	-7,8704488E-006
2	0	0	1	0	4,578836277364136E+004	1,4354025E+000	1,4347860E+000	-2,315115051699318E-003	1,000000000000000E+000	-2,4457687E-001	42	-3,3216945E-006
2	1	0	1	0	4,607824777418142E+004	1,4933795E+000	1,4927577E+000	1,789765534481123E-003	1,000000000000000E+000	-2,4466558E-001	42	2,6716862E-006
2	1	0	1	0	4,636813237472120E+004	1,5513564E+000	1,5506657E+000	8,222709572790143E-003	1,000000000000000E+000	-2,4331112E-001	42	1,2750674E-005
2	1	0	1	0	4,665801737526106E+004	1,6093332E+000	1,6086854E+000	2,971767896441224E-002	1,000000000000000E+000	-2,3862679E-001	41	4,7806396E-005
2	1	0	1	0	4,694790197580107E+004	1,6673101E+000	1,6666051E+000	6,615403750466609E-002	1,000000000000000E+000	-2,2462741E-001	41	1,1025266E-004
2	1	0	1	0	4,723778697634116E+004	1,7252868E+000	1,7245612E+000	9,372800265865355E-002	1,000000000000000E+000	-2,0113912E-001	41	1,6163968E-004
2	1	0	1	0	4,752767157688105E+004	1,7832636E+000	1,7826219E+000	1,083474884505291E-001	1,000000000000000E+000	-1,7151332E-001	40	1,9314261E-004
2	1	0	1	0	4,781755617742101E+004	1,8412405E+000	1,8406180E+000	1,100733756405803E-001	1,000000000000000E+000	-1,3952968E-001	40	2,0260304E-004
2	1	0	1	0	4,810744087796094E+004	1,8992172E+000	1,8985914E+000	9,885709862982517E-002	1,000000000000000E+000	-1,0890747E-001	40	1,8768923E-004
2	1	0	1	0	4,839732547850092E+004	1,9571941E+000	1,9565728E+000	7,592196146706698E-002	1,000000000000000E+000	-8,3321512E-002	40	1,4854684E-004
2	1	0	1	0	4,868721107904080E+004	2,0151706E+000	2,0145772E+000	4,930476705462816E-002	1,000000000000000E+000	-6,5362610E-002	40	9,9328259E-005
2	1	0	1	0	4,897759567958163E+004	2,0732474E+000	2,0726092E+000	3,445606748536290E-002	1,000000000000000E+000	-5,3449154E-002	41	7,1413961E-005
2	1	0	1	0	4,926748068012169E+004	2,1312244E+000	2,1306405E+000	2,716583033429040E-002	1,000000000000000E+000	-4,4613346E-002	41	5,7880618E-005
2	1	0	1	0	4,955736468066182E+004	2,1892014E+000	2,1885984E+000	2,272974209191625E-002	1,000000000000000E+000	-3,7410330E-002	41	4,9746279E-005
2	1	0	1	0	4,984725028120156E+004	2,2471781E+000	2,2465641E+000	1,963880698225914E-002	1,000000000000000E+000	-3,1276725E-002	41	4,4119839E-005
2	1	0	1	0	5,013713428174146E+004	2,3051550E+000	2,3045578E+000	1,734029992624686E-002	1,000000000000000E+000	-2,5918096E-002	41	3,9961724E-005
2	1	0	1	0	5,042701928228157E+004	2,3631313E+000	2,3625467E+000	1,570159319099912E-002	1,000000000000000E+000	-2,1127995E-002	41	3,7095746E-005
2	1	0	1	0	5,071690388282156E+004	2,4211082E+000	2,4205401E+000	1,453617739443538E-002	1,000000000000000E+000	-1,6748810E-002	41	3,5185400E-005
2	1	0	1	0	5,100678848336142E+004	2,4790850E+000	2,4784904E+000	1,367473641744832E-002	1,000000000000000E+000	-1,2639327E-002	41	3,3892702E-005
2	1	0	1	0	5,129667348390119E+004	2,5370619E+000	2,5364847E+000	1,262330662333377E-002	1,000000000000000E+000	-8,8110417E-003	41	3,2018823E-005
2	1	0	1	0	5,158655808444129E+004	2,5950387E+000	2,5944574E+000	1,148570975224746E-002	1,000000000000000E+000	-5,2994848E-003	41	2,9799185E-005
2	1	0	1	0	5,187644308498129E+004	2,6530156E+000	2,6524532E+000	1,072147529776307E-002	1,000000000000000E+000	-2,0672644E-003	41	2,8438211E-005
2	1	0	1	0	5,216632768552128E+004	2,7109926E+000	2,7104259E+000	9,891320242255988E-003	1,000000000000000E+000	9,3113916E-004	41	2,6809690E-005
2	1	0	1	0	5,245621268606139E+004	2,7689693E+000	2,7683949E+000	9,326464356213787E-003	1,000000000000000E+000	3,7165030E-003	41	2,5819338E-005
2	1	0	1	0	5,274609668660111E+004	2,8269463E+000	2,8263700E+000	9,400507991622065E-003	1,000000000000000E+000	6,4312429E-003	41	2,6569314E-005
2	1	0	1	0	5,303598168714112E+004	2,8849227E+000	2,8843441E+000	9,262767683280909E-003	1,000000000000000E+000	9,1715464E-003	41	2,6717009E-005
2	1	0	1	0	5,332586628768104E+004	2,9428999E+000	2,9423201E+000	8,796131207320791E-003	1,000000000000000E+000	1,1798102E-002	41	2,5881034E-005
2	1	0	0	1	5,361150258821307E+004	3,0000279E+000	2,9994462E+000	8,832161958800988E-003	1,000000000000000E+000	1,4319918E-002	41	2,6491594E-005
2	1	0	1	1	5,389913728874887E+004	2,9425001E+000	2,9418941E+000	3,674637711985288E-003	1,000000000000000E+000	1,5809361E-002	42	1,0810395E-005
2	1	0	1	1	5,418902128928900E+004	2,8845232E+000	2,8839216E+000	2,186249763256917E-003	1,000000000000000E+000	1,6618662E-002	42	6,3049729E-006
2	1	0	1	1	5,447890328982868E+004	2,8265467E+000	2,8259635E+000	1,327471820669301E-003	1,000000000000000E+000	1,7100425E-002	42	3,7513869E-006
2	1	0	1	1	5,476878669036878E+004	2,7685692E+000	2,7680004E+000	8,487386892273817E-004	1,000000000000000E+000	1,7392989E-002	42	2,3493089E-006
2	1	0	1	1	5,505866929090861E+004	2,7105925E+000	2,7099209E+000	5,428953790483637E-004	1,000000000000000E+000	1,7578714E-002	43	1,4712035E-006
2	1	0	1	1	5,534855269144848E+004	2,6526158E+000	2,6520030E+000	2,130480134320335E-004	1,000000000000000E+000	1,7678587E-002	43	5,6500397E-007
2	0	0	1	1	5,563893489198945E+004	2,5945392E+000	2,5939951E+000	-2,679413610553320E-004	1,000000000000000E+000	1,7652867E-002	43	-6,9503858E-007
2	0	0	1	1	5,592881829252932E+004	2,5365622E+000	2,5360265E+000	-5,194954398448637E-004	1,000000000000000E+000	1,7527618E-002	43	-1,3174542E-006
2	0	0	1	1	5,621870089306938E+004	2,4785855E+000	2,4781132E+000	-8,210116019184087E-004	1,000000000000000E+000	1,7320579E-002	43	-2,0345597E-006
2	0	0	1	1	5,650858429360949E+004	2,4206083E+000	2,4200275E+000	-1,133826004758136E-003	1,000000000000000E+000	1,7021995E-002	42	-2,7438900E-006
2	0	0	1	1	5,679846729414922E+004	2,3626318E+000	2,3620625E+000	-1,334732984629600E-003	1,000000000000000E+000	1,6646245E-002	42	-3,1527227E-006
2	0	0	1	1	5,708835029468918E+004	2,3046548E+000	2,3041050E+000	-1,577298584904241E-003	1,000000000000000E+000	1,6210249E-002	42	-3,6342617E-006
2	0	0	1	1	5,737823369522911E+004	2,2466781E+000	2,2460775E+000	-1,917308107473814E-003	1,000000000000000E+000	1,5691465E-002	42	-4,3064229E-006
2	0	0	1	1	5,766811569576908E+004	2,1887014E+000	2,1881323E+000	-2,401433263477207E-003	1,000000000000000E+000	1,5053428E-002	42	-5,2546538E-006
2	0	0	1	1	5,795799969630901E+004	2,1307247E+000	2,1301551E+000	-3,071844784275114E-003	1,000000000000000E+000	1,4248637E-002	42	-6,5435056E-006
2	0	0	1	1	5,824788169684913E+004	2,0727479E+000	2,0721915E+000	-3,944573851021704E-003	1,000000000000000E+000	1,3219519E-002	42	-8,1739126E-006
2	0	0	1	1	5,853776509738894E+004	2,0147707E+000	2,0141962E+000	-5,009766092159827E-003	1,000000000000000E+000	1,1907240E-002	42	-1,0090652E-005
2	0	0	1	1	5,882764859792890E+004	1,9567943E+000	1,9562752E+000	-6,144408224632518E-003	1,000000000000000E+000	1,0278281E-002	42	-1,2020154E-005
2	0	0	1	1	5,911753259846894E+004	1,8988173E+000	1,8982812E+000	-7,587592941564331E-003	1,000000000000000E+000	8,2800835E-003	42	-1,4403385E-005
2	0	0	1	1	5,940741639900871E+004	1,8408407E+000	1,8403175E+000	-9,428387438524428E-003	1,000000000000000E+000	5,8067702E-003	42	-1,7351227E-005
2	0	0	1	1	5,969730039954869E+004	1,7828637E+000	1,7822458E+000	-1,202420530758741E-002	1,000000000000000E+000	2,7054730E-003	41	-2,1430089E-005
2	0	0	1	1	5,998718440008868E+004	1,7248870E+000	1,7242500E+000	-1,538653746212711E-002	1,000000000000000E+000	-1,2694040E-003	41	-2,6530237E-005
2	0	0	1	1	6,000038180011325E+004	1,7222385E+000	1,7216356E+000	-1,556595783260615E-002	1,000000000000000E+000	-1,4742801E-003	41	-2,6798907E-005