File: Dati/210311/CV_LTO_MX_10 layer_grafite nuova_0.1_1mVs_10_CV_C03.mpt
EC-Lab ASCII FILE
Nb header lines : 57

Cyclic Voltammetry

Run on channel : 3 (SN 6807)
User :
Electrode connection : standard
Ewe ctrl range : min = 0,00 V, max = 5,00 V
Ewe,I filtering : 50 kHz
Safety Limits :
	Do not start on E overload
Channel : Grounded
Acquisition started on : 03/11/2021 17:24:33
Saved on :
	File : CV_LTO_MX_10 layer_grafite nuova_0.1_1mVs_10_CV_C03.mpr
	Directory : C:\Users\labsuperfici\Desktop\Biologic\Users\Prisca Viviani\210311\
	Host : 169.254.114.127
Device : VSP-300 (SN 0638)
Address : USB
EC-Lab for windows v11.31 (software)
Internet server v11.30 (firmware)
Command interpretor v11.31 (firmware)
Electrode material :
Initial state :
Electrolyte :
Comments :
Cable : standard
Reference electrode : SCE Saturated Calomel Electrode (0,241 V)
Electrode surface area : 0,001 cm²
Characteristic mass : 0,001 g
Equivalent Weight : 0,000 g/eq.
Density : 0,000 g/cm3
Cycle Definition : Charge/Discharge alternance
Ei (V)              0,000
vs.                 Eoc
dE/dt               1,000
dE/dt unit          mV/s
E1 (V)              1,000
vs.                 Ref
Step percent        50
N                   10
E range min (V)     0,000
E range max (V)     5,000
I Range             Auto
I Range min         Unset
I Range max         Unset
I Range init        Unset
Bandwidth           8
E2 (V)              3,000
vs.                 Ref
nc cycles           0
Reverse Scan        1
Ef (V)              0,000
vs.                 Eoc

mode	ox/red	error	control changes	counter inc.	time/s	control/V	Ewe/V	<I>/mA	cycle number	(Q-Qo)/C	I Range	P/W
2	0	0	1	0	1,131612477450725E+005	1,7222385E+000	1,7217463E+000	-3,943878039717674E-002	1,000000000000000E+000	0,0000000E+000	41	-6,7903573E-005
2	0	0	1	0	1,132187749314569E+005	1,6647110E+000	1,6641546E+000	-4,538130839420884E-002	1,000000000000000E+000	-2,3363717E-003	41	-7,5521515E-005
2	0	0	1	0	1,132767517177332E+005	1,6067340E+000	1,6062207E+000	-5,685188879215586E-002	1,000000000000000E+000	-5,2872160E-003	41	-9,1316680E-005
2	0	0	1	0	1,133347285040105E+005	1,5487574E+000	1,5482281E+000	-7,244450623363258E-002	1,000000000000000E+000	-9,0164561E-003	41	-1,1216063E-004
2	0	0	1	0	1,133927051902921E+005	1,4907805E+000	1,4903098E+000	-9,335527455043702E-002	1,000000000000000E+000	-1,3799328E-002	41	-1,3912829E-004
2	0	0	1	0	1,134506820765878E+005	1,4328038E+000	1,4322067E+000	-1,194397052246337E-001	1,000000000000000E+000	-1,9955356E-002	40	-1,7106235E-004
2	0	0	1	0	1,135086588628828E+005	1,3748268E+000	1,3742528E+000	-1,452859552388626E-001	1,000000000000000E+000	-2,7651452E-002	40	-1,9965963E-004
2	0	0	1	0	1,135666356491777E+005	1,3168499E+000	1,3162813E+000	-1,657536827947128E-001	1,000000000000000E+000	-3,6705177E-002	40	-2,1817848E-004
2	0	0	1	0	1,136246124354731E+005	1,2588732E+000	1,2583126E+000	-1,800942258438414E-001	1,000000000000000E+000	-4,6762474E-002	40	-2,2661484E-004
2	0	0	1	0	1,136825892217672E+005	1,2008965E+000	1,2003114E+000	-1,878578052925808E-001	1,000000000000000E+000	-5,7476174E-002	40	-2,2548786E-004
2	0	0	1	0	1,137405660080444E+005	1,1429197E+000	1,1423553E+000	-1,875893402510180E-001	1,000000000000000E+000	-6,8385363E-002	40	-2,1429369E-004
2	0	0	1	0	1,137985426943214E+005	1,0849431E+000	1,0843687E+000	-1,852031439714392E-001	1,000000000000000E+000	-7,9200804E-002	40	-2,0082849E-004
2	0	0	1	0	1,138565195805975E+005	1,0269660E+000	1,0263852E+000	-1,825370486057044E-001	1,000000000000000E+000	-8,9861430E-002	40	-1,8735332E-004
2	0	0	1	0	1,139129976672316E+005	1,0295650E+000	1,0289825E+000	-1,451454642725378E-001	1,000000000000000E+000	-9,9487826E-002	40	-1,4935214E-004
2	0	0	1	0	1,139709745535080E+005	1,0875418E+000	1,0869658E+000	-1,081388198846602E-001	1,000000000000000E+000	-1,0673181E-001	40	-1,1754320E-004
2	0	0	1	0	1,140289513397975E+005	1,1455187E+000	1,1449236E+000	-8,387809523974599E-002	1,000000000000000E+000	-1,1225500E-001	40	-9,6034011E-005
2	0	0	1	0	1,140869281260930E+005	1,2034955E+000	1,2028950E+000	-6,557223784908173E-002	1,000000000000000E+000	-1,1656158E-001	40	-7,8876517E-005
2	0	0	1	0	1,141449049123881E+005	1,2614723E+000	1,2608970E+000	-5,074658524324110E-002	1,000000000000000E+000	-1,1991722E-001	40	-6,3986219E-005
2	0	0	1	0	1,142028817986840E+005	1,3194489E+000	1,3188869E+000	-3,787082678879095E-002	1,000000000000000E+000	-1,2247398E-001	41	-4,9947335E-005
2	0	0	1	0	1,142608585849801E+005	1,3774258E+000	1,3768492E+000	-2,607027973387541E-002	1,000000000000000E+000	-1,2432092E-001	41	-3,5894842E-005
2	0	0	1	0	1,143188354712665E+005	1,4354026E+000	1,4348189E+000	-1,421895728154839E-002	1,000000000000000E+000	-1,2548777E-001	41	-2,0401629E-005
2	0	0	1	0	1,143768122575426E+005	1,4933796E+000	1,4928184E+000	-1,155144865307683E-003	1,000000000000000E+000	-1,2593825E-001	42	-1,7244215E-006
2	1	0	1	0	1,144347890438186E+005	1,5513563E+000	1,5507288E+000	1,471600838771789E-002	1,000000000000000E+000	-1,2556100E-001	41	2,2820537E-005
2	1	0	1	0	1,144927659300942E+005	1,6093333E+000	1,6087147E+000	3,772181510311357E-002	1,000000000000000E+000	-1,2410359E-001	41	6,0683640E-005
2	1	0	1	0	1,145507428163704E+005	1,6673100E+000	1,6666448E+000	7,673304108155277E-002	1,000000000000000E+000	-1,2082747E-001	41	1,2788673E-004
2	1	0	1	0	1,146087196026547E+005	1,7252866E+000	1,7246989E+000	1,182077587667905E-001	1,000000000000000E+000	-1,1516391E-001	40	2,0387280E-004
2	1	0	1	0	1,146666963889501E+005	1,7832634E+000	1,7826558E+000	1,556683252413937E-001	1,000000000000000E+000	-1,0718887E-001	40	2,7750304E-004
2	1	0	1	0	1,147246732752458E+005	1,8412404E+000	1,8406384E+000	1,838877508888650E-001	1,000000000000000E+000	-9,7286239E-002	40	3,3847085E-004
2	1	0	1	0	1,147826500615417E+005	1,8992171E+000	1,8986447E+000	2,011123707560394E-001	1,000000000000000E+000	-8,6068489E-002	40	3,8184095E-004
2	1	0	1	0	1,148406269478379E+005	1,9571940E+000	1,9566307E+000	2,069734061113704E-001	1,000000000000000E+000	-7,4179865E-002	40	4,0497052E-004
2	1	0	1	0	1,148986037341296E+005	2,0151706E+000	2,0146081E+000	2,007774036708829E-001	1,000000000000000E+000	-6,2298380E-002	40	4,0448780E-004
2	1	0	1	0	1,149565805204054E+005	2,0731475E+000	2,0725889E+000	1,823164254714709E-001	1,000000000000000E+000	-5,1132325E-002	40	3,7786699E-004
2	1	0	1	0	1,150145574066816E+005	2,1311243E+000	2,1305628E+000	1,535713557249254E-001	1,000000000000000E+000	-4,1352157E-002	40	3,2719341E-004
2	1	0	1	0	1,150725342929573E+005	2,1891012E+000	2,1885550E+000	1,222573634141999E-001	1,000000000000000E+000	-3,3363067E-002	40	2,6756697E-004
2	1	0	1	0	1,151305110792341E+005	2,2470779E+000	2,2465343E+000	9,636613980077047E-002	1,000000000000000E+000	-2,7061775E-002	40	2,1648985E-004
2	1	0	1	0	1,151884878655127E+005	2,3050547E+000	2,3045306E+000	7,797579615023909E-002	1,000000000000000E+000	-2,2042608E-002	40	1,7969761E-004
2	1	0	1	0	1,152464649518088E+005	2,3630319E+000	2,3625121E+000	6,528284265508855E-002	1,000000000000000E+000	-1,7908417E-002	40	1,5423150E-004
2	1	0	1	0	1,153044416381046E+005	2,4210083E+000	2,4204743E+000	5,586664019522906E-002	1,000000000000000E+000	-1,4407113E-002	40	1,3522376E-004
2	1	0	1	0	1,153624185244001E+005	2,4789855E+000	2,4784596E+000	4,966759124824360E-002	1,000000000000000E+000	-1,1357861E-002	40	1,2309912E-004
2	1	0	1	0	1,154203955106956E+005	2,5369620E+000	2,5364244E+000	4,494783774337474E-002	1,000000000000000E+000	-8,6145177E-003	41	1,1400679E-004
2	1	0	1	0	1,154783721969910E+005	2,5949385E+000	2,5943866E+000	4,090124373336267E-002	1,000000000000000E+000	-6,1249500E-003	41	1,0611364E-004
2	1	0	1	0	1,155363490832695E+005	2,6529157E+000	2,6523938E+000	3,792419451121165E-002	1,000000000000000E+000	-3,8440800E-003	41	1,0058990E-004
2	1	0	1	0	1,155943258695456E+005	2,7108927E+000	2,7103293E+000	3,502588273642976E-002	1,000000000000000E+000	-1,7233710E-003	41	9,4931675E-005
2	1	0	1	0	1,156523028558218E+005	2,7688694E+000	2,7683337E+000	3,267332222082531E-002	1,000000000000000E+000	2,3808514E-004	41	9,0450660E-005
2	1	0	1	0	1,157102797420990E+005	2,8268461E+000	2,8263056E+000	3,157987485496658E-002	1,000000000000000E+000	2,0971552E-003	41	8,9254376E-005
2	1	0	1	0	1,157682564283761E+005	2,8848231E+000	2,8842709E+000	3,105020809333614E-002	1,000000000000000E+000	3,9179102E-003	41	8,9557208E-005
2	1	0	1	0	1,158262335146677E+005	2,9427998E+000	2,9422939E+000	3,061133500628249E-002	1,000000000000000E+000	5,7054698E-003	41	9,0067544E-005
2	1	0	1	1	1,158834607011374E+005	3,0000279E+000	2,9994957E+000	2,991549766446694E-002	1,000000000000000E+000	7,4419836E-003	41	8,9731409E-005
2	1	0	1	1	1,159409876875388E+005	2,9425001E+000	2,9420018E+000	1,333632363933751E-002	1,000000000000000E+000	8,4860371E-003	41	3,9235489E-005
2	1	0	1	1	1,159989646738349E+005	2,8845227E+000	2,8840077E+000	8,506034250273159E-003	1,000000000000000E+000	9,1017941E-003	41	2,4531468E-005
2	1	0	1	1	1,160569413601309E+005	2,8265462E+000	2,8260629E+000	5,645469830916239E-003	1,000000000000000E+000	9,5016342E-003	41	1,5954452E-005
2	1	0	1	1	1,161149181464193E+005	2,7685695E+000	2,7680433E+000	3,844361916411777E-003	1,000000000000000E+000	9,7698104E-003	42	1,0641360E-005
2	1	0	1	1	1,161728949326952E+005	2,7105927E+000	2,7100558E+000	2,456033434018075E-003	1,000000000000000E+000	9,9477600E-003	42	6,6559878E-006
2	1	0	1	1	1,162308717189711E+005	2,6526155E+000	2,6520853E+000	9,468054479901417E-004	1,000000000000000E+000	1,0045206E-002	42	2,5110089E-006
2	0	0	1	1	1,162888486052477E+005	2,5946388E+000	2,5941722E+000	-6,873669927250620E-004	1,000000000000000E+000	1,0044027E-002	43	-1,7831484E-006
2	0	0	1	1	1,163468252915246E+005	2,5366621E+000	2,5361707E+000	-1,655851504432516E-003	1,000000000000000E+000	9,9751335E-003	42	-4,1995222E-006
2	0	0	1	1	1,164048021778066E+005	2,4786854E+000	2,4781697E+000	-2,859043587091825E-003	1,000000000000000E+000	9,8407008E-003	42	-7,0851952E-006
2	0	0	1	1	1,164627788641024E+005	2,4207084E+000	2,4202547E+000	-4,057706242700777E-003	1,000000000000000E+000	9,6356282E-003	42	-9,8206829E-006
2	0	0	1	1	1,165207556503976E+005	2,3627322E+000	2,3622448E+000	-4,759029804909304E-003	1,000000000000000E+000	9,3752109E-003	42	-1,1241994E-005
2	0	0	1	1	1,165787324366932E+005	2,3047547E+000	2,3042879E+000	-5,534341329521825E-003	1,000000000000000E+000	9,0741292E-003	42	-1,2752716E-005
2	0	0	1	1	1,166367092229886E+005	2,2467785E+000	2,2463405E+000	-6,547786515885723E-003	1,000000000000000E+000	8,7214103E-003	42	-1,4708558E-005
2	0	0	1	1	1,166946861092824E+005	2,1888013E+000	2,1883893E+000	-7,779976511744197E-003	1,000000000000000E+000	8,3039291E-003	42	-1,7025617E-005
2	0	0	1	1	1,167526629955586E+005	2,1308248E+000	2,1304126E+000	-9,303959056922877E-003	1,000000000000000E+000	7,8069870E-003	42	-1,9821271E-005
2	0	0	1	1	1,168106396818346E+005	2,0728476E+000	2,0723081E+000	-1,117861089513946E-002	1,000000000000000E+000	7,2107241E-003	41	-2,3165525E-005
2	0	0	1	1	1,168686165681115E+005	2,0148709E+000	2,0143352E+000	-1,352232780546483E-002	1,000000000000000E+000	6,4940667E-003	41	-2,7238500E-005
2	0	0	1	1	1,169265934543884E+005	1,9568942E+000	1,9563761E+000	-1,630128166485741E-002	1,000000000000000E+000	5,6266552E-003	41	-3,1891439E-005
2	0	0	1	1	1,169845700406659E+005	1,8989173E+000	1,8983723E+000	-1,956917353543421E-002	1,000000000000000E+000	4,5875944E-003	41	-3,7149577E-005
2	0	0	1	1	1,170425469269603E+005	1,8409404E+000	1,8404053E+000	-2,375574109180645E-002	1,000000000000000E+000	3,3317392E-003	41	-4,3720192E-005
2	0	0	1	1	1,171005237132554E+005	1,7829636E+000	1,7824206E+000	-2,924972080299965E-002	1,000000000000000E+000	1,8008571E-003	41	-5,2135307E-005
2	0	0	1	1	1,171585004995506E+005	1,7249870E+000	1,7244517E+000	-3,692823314760524E-002	1,000000000000000E+000	-1,1280147E-004	41	-6,3680956E-005
2	0	0	1	1	1,171612401989077E+005	1,7222385E+000	1,7217616E+000	-3,734112053298133E-002	1,000000000000000E+000	-2,1470248E-004	41	-6,4292508E-005