File: Dati/210311/CV_LTO_MX_10 layer_grafite nuova_0.1_1mVs_01_CV_C03.mpt
EC-Lab ASCII FILE
Nb header lines : 57

Cyclic Voltammetry

Run on channel : 3 (SN 6807)
User :
Electrode connection : standard
Ewe ctrl range : min = 0,00 V, max = 5,00 V
Ewe,I filtering : 50 kHz
Safety Limits :
	Do not start on E overload
Channel : Grounded
Acquisition started on : 03/11/2021 17:24:33
Saved on :
	File : CV_LTO_MX_10 layer_grafite nuova_0.1_1mVs_01_CV_C03.mpr
	Directory : C:\Users\labsuperfici\Desktop\Biologic\Users\Prisca Viviani\210311\
	Host : 169.254.114.127
Device : VSP-300 (SN 0638)
Address : USB
EC-Lab for windows v11.31 (software)
Internet server v11.30 (firmware)
Command interpretor v11.31 (firmware)
Electrode material :
Initial state :
Electrolyte :
Comments :
Cable : standard
Reference electrode : SCE Saturated Calomel Electrode (0,241 V)
Electrode surface area : 0,001 cm²
Characteristic mass : 0,001 g
Equivalent Weight : 0,000 g/eq.
Density : 0,000 g/cm3
Cycle Definition : Charge/Discharge alternance
Ei (V)              0,000
vs.                 Eoc
dE/dt               0,100
dE/dt unit          mV/s
E1 (V)              1,000
vs.                 Ref
Step percent        50
N                   10
E range min (V)     0,000
E range max (V)     5,000
I Range             Auto
I Range min         Unset
I Range max         Unset
I Range init        Unset
Bandwidth           8
E2 (V)              3,000
vs.                 Ref
nc cycles           0
Reverse Scan        1
Ef (V)              0,000
vs.                 Eoc

mode	ox/red	error	control changes	counter inc.	time/s	control/V	Ewe/V	<I>/mA	cycle number	(Q-Qo)/C	I Range	P/W
2	0	1	0	0	0,000000000000000E+000	1,7222385E+000	1,7217158E+000	-6,160395569168031E-004	1,000000000000000E+000	0,0000000E+000	43	-1,0606450E-006
2	0	0	1	0	5,752690854674802E+002	1,6647110E+000	1,6641663E+000	-8,450610306202588E-003	1,000000000000000E+000	-3,4913332E-003	42	-1,4063221E-005
2	0	0	1	0	1,155035170821357E+003	1,6067342E+000	1,6061085E+000	-1,373832639383063E-002	1,000000000000000E+000	-9,8211030E-003	41	-2,2065244E-005
2	0	0	1	0	1,734800556175251E+003	1,5487574E+000	1,5481259E+000	-2,383723736361903E-002	1,000000000000000E+000	-2,0365678E-002	41	-3,6903042E-005
2	0	0	1	0	2,314566541529130E+003	1,4907806E+000	1,4901834E+000	-4,602341025444334E-002	1,000000000000000E+000	-4,0304866E-002	41	-6,8583322E-005
2	0	0	1	0	2,894332526883009E+003	1,4328038E+000	1,4322175E+000	-5,834039149447978E-002	1,000000000000000E+000	-7,1421444E-002	41	-8,3556130E-005
2	0	0	1	0	3,474098512236887E+003	1,3748270E+000	1,3742603E+000	-5,884096855368004E-002	1,000000000000000E+000	-1,0567624E-001	41	-8,0862810E-005
2	0	0	1	0	4,053864497590766E+003	1,3168499E+000	1,3162706E+000	-5,160843651444880E-002	1,000000000000000E+000	-1,3795374E-001	41	-6,7930669E-005
2	0	0	1	0	4,633629890017153E+003	1,2588733E+000	1,2582735E+000	-4,504837462499607E-002	1,000000000000000E+000	-1,6592725E-001	41	-5,6683177E-005
2	0	0	1	0	5,213395882997815E+003	1,2008964E+000	1,2002774E+000	-3,979292838494547E-002	1,000000000000000E+000	-1,9048087E-001	41	-4,7762554E-005
2	0	0	1	0	5,793162175978476E+003	1,1429198E+000	1,1422921E+000	-3,566635748095520E-002	1,000000000000000E+000	-2,1233958E-001	41	-4,0741401E-005
2	0	0	1	0	6,372928168959115E+003	1,0849428E+000	1,0843151E+000	-3,267793035794792E-002	1,000000000000000E+000	-2,3213179E-001	41	-3,5433171E-005
2	0	0	1	0	6,952694161939799E+003	1,0269660E+000	1,0263330E+000	-3,066024685040325E-002	1,000000000000000E+000	-2,5047573E-001	41	-3,1467622E-005
2	0	0	1	0	7,517469955101929E+003	1,0295650E+000	1,0289555E+000	-2,139388877751286E-002	1,000000000000000E+000	-2,6592639E-001	41	-2,2013359E-005
2	0	0	1	0	8,097239448082546E+003	1,0875418E+000	1,0869076E+000	-1,442694928590149E-002	1,000000000000000E+000	-2,7604485E-001	41	-1,5680762E-005
2	0	0	1	0	8,677009041063138E+003	1,1455187E+000	1,1448771E+000	-1,036139516092877E-002	1,000000000000000E+000	-2,8312832E-001	41	-1,1862524E-005
2	0	0	1	0	9,256778634043760E+003	1,2034955E+000	1,2028500E+000	-7,535252043031015E-003	1,000000000000000E+000	-2,8825152E-001	41	-9,0637777E-006
2	0	0	1	0	9,836547227024450E+003	1,2614723E+000	1,2607931E+000	-5,308923962471568E-003	1,000000000000000E+000	-2,9192334E-001	41	-6,6934545E-006
2	0	0	1	0	1,041631682000507E+004	1,3194492E+000	1,3188125E+000	-3,452560432123716E-003	1,000000000000000E+000	-2,9441985E-001	42	-4,5532797E-006
2	0	0	1	0	1,099608581298565E+004	1,3774259E+000	1,3767930E+000	-1,729544883691776E-003	1,000000000000000E+000	-2,9589197E-001	42	-2,3812254E-006
2	1	0	1	0	1,157585540596627E+004	1,4354026E+000	1,4347271E+000	1,524986237516788E-004	1,000000000000000E+000	-2,9633430E-001	43	2,1879390E-007
2	1	0	1	0	1,215562499894689E+004	1,4933796E+000	1,4927067E+000	2,425234798722305E-003	1,000000000000000E+000	-2,9558671E-001	42	3,6201641E-006
2	1	0	1	0	1,273539459192750E+004	1,5513564E+000	1,5506251E+000	6,606839751234772E-003	1,000000000000000E+000	-2,9314226E-001	42	1,0244731E-005
2	1	0	1	0	1,331516418490814E+004	1,6093333E+000	1,6086384E+000	3,235449511152222E-002	1,000000000000000E+000	-2,8388286E-001	41	5,2046682E-005
2	1	0	1	0	1,389493377788877E+004	1,6673101E+000	1,6665959E+000	6,556187411391723E-002	1,000000000000000E+000	-2,5472140E-001	41	1,0926515E-004
2	1	0	1	0	1,447470337086939E+004	1,7252868E+000	1,7245538E+000	8,045534227055318E-002	1,000000000000000E+000	-2,1143192E-001	41	1,3874957E-004
2	1	0	1	0	1,505447296385001E+004	1,7832637E+000	1,7825346E+000	7,741238252296584E-002	1,000000000000000E+000	-1,6487482E-001	41	1,3799025E-004
2	1	0	1	0	1,563424215683060E+004	1,8412404E+000	1,8405355E+000	6,181054409193687E-002	1,000000000000000E+000	-1,2410057E-001	41	1,1376450E-004
2	1	0	1	0	1,621401114981121E+004	1,8992172E+000	1,8985454E+000	4,255878460952539E-002	1,000000000000000E+000	-9,3724415E-002	41	8,0799786E-005
2	1	0	1	0	1,679378074279183E+004	1,9571941E+000	1,9565363E+000	2,716590911447869E-002	1,000000000000000E+000	-7,4100897E-002	41	5,3151089E-005
2	1	0	1	0	1,737355153577239E+004	2,0151703E+000	2,0145335E+000	2,007863663303514E-002	1,000000000000000E+000	-6,0585357E-002	41	4,0449086E-005
2	1	0	1	0	1,795332112875301E+004	2,0731478E+000	2,0725353E+000	1,613219000123745E-002	1,000000000000000E+000	-5,0151557E-002	41	3,3434531E-005
2	1	0	1	0	1,853309062173369E+004	2,1311243E+000	2,1304896E+000	1,357025947817753E-002	1,000000000000000E+000	-4,1553497E-002	41	2,8911296E-005
2	1	0	1	0	1,911286021471431E+004	2,1891012E+000	2,1885068E+000	1,168045299795031E-002	1,000000000000000E+000	-3,4226749E-002	41	2,5562751E-005
2	1	0	1	0	1,969262980769493E+004	2,2470777E+000	2,2464569E+000	1,022775452510569E-002	1,000000000000000E+000	-2,7865088E-002	41	2,2976210E-005
2	1	0	1	0	2,027239940067555E+004	2,3050547E+000	2,3044739E+000	9,102258083057577E-003	1,000000000000000E+000	-2,2250457E-002	41	2,0975916E-005
2	1	0	1	0	2,085216899365617E+004	2,3630314E+000	2,3624444E+000	8,293445445868519E-003	1,000000000000000E+000	-1,7185429E-002	41	1,9592804E-005
2	1	0	1	0	2,143193818663678E+004	2,4210086E+000	2,4204259E+000	7,732836615153477E-003	1,000000000000000E+000	-1,2542169E-002	41	1,8716759E-005
2	1	0	1	0	2,201170777961740E+004	2,4789851E+000	2,4783902E+000	7,387448223507231E-003	1,000000000000000E+000	-8,1260940E-003	41	1,8308980E-005
2	1	0	1	0	2,259147737259802E+004	2,5369623E+000	2,5363820E+000	6,826483317992960E-003	1,000000000000000E+000	-3,9584893E-003	41	1,7314569E-005
2	1	0	1	0	2,317124576557864E+004	2,5949390E+000	2,5943382E+000	6,209245299277202E-003	1,000000000000000E+000	-1,6692068E-004	41	1,6108883E-005
2	1	0	1	0	2,375101535855929E+004	2,6529155E+000	2,6523573E+000	5,821508976741191E-003	1,000000000000000E+000	3,3470572E-003	41	1,5440723E-005
2	1	0	1	0	2,433078485153988E+004	2,7108924E+000	2,7103171E+000	5,440778223926510E-003	1,000000000000000E+000	6,6260132E-003	41	1,4746234E-005
2	1	0	1	0	2,491055444452053E+004	2,7688689E+000	2,7682548E+000	5,370128147903330E-003	1,000000000000000E+000	9,7653158E-003	41	1,4865883E-005
2	1	0	1	0	2,549032403750111E+004	2,8268464E+000	2,8262794E+000	5,872490240724552E-003	1,000000000000000E+000	1,3031444E-002	41	1,6597298E-005
2	1	0	1	0	2,607009363048177E+004	2,8848228E+000	2,8842213E+000	5,602974421881936E-003	1,000000000000000E+000	1,6428515E-002	41	1,6160218E-005
2	1	0	1	0	2,664986322346234E+004	2,9427998E+000	2,9422369E+000	5,397542419809661E-003	1,000000000000000E+000	1,9598316E-002	41	1,5880849E-005
2	1	0	1	1	2,722213441653375E+004	3,0000279E+000	2,9994462E+000	5,781684834174142E-003	1,000000000000000E+000	2,2809763E-002	41	1,7341852E-005
2	1	0	1	1	2,779740090956888E+004	2,9425001E+000	2,9419045E+000	2,294594020572770E-003	1,000000000000000E+000	2,4743283E-002	42	6,7504766E-006
2	1	0	1	1	2,837716550254956E+004	2,8845232E+000	2,8839343E+000	1,289417993431919E-003	1,000000000000000E+000	2,5719775E-002	42	3,7185966E-006
2	1	0	1	1	2,895692679553037E+004	2,8265462E+000	2,8259404E+000	7,284394175062752E-004	1,000000000000000E+000	2,6263842E-002	42	2,0585264E-006
2	1	0	1	1	2,953668918851102E+004	2,7685690E+000	2,7679338E+000	4,365367465233886E-004	1,000000000000000E+000	2,6570739E-002	43	1,2083049E-006
2	1	0	1	1	3,011645158149168E+004	2,7105930E+000	2,7099998E+000	2,669269957932627E-004	1,000000000000000E+000	2,6752073E-002	43	7,2337212E-007
2	1	0	1	1	3,069621407447243E+004	2,6526155E+000	2,6520171E+000	1,073250451610995E-004	1,000000000000000E+000	2,6840545E-002	43	2,8462784E-007
2	0	0	1	1	3,127597646745310E+004	2,5946393E+000	2,5940597E+000	-1,709582077252061E-004	1,000000000000000E+000	2,6791787E-002	43	-4,4347578E-007
2	0	0	1	1	3,185573776043381E+004	2,5366621E+000	2,5361266E+000	-3,032268422110818E-004	1,000000000000000E+000	2,6636800E-002	43	-7,6902165E-007
2	0	0	1	1	3,243550135341450E+004	2,4786854E+000	2,4781523E+000	-4,813266182806773E-004	1,000000000000000E+000	2,6387345E-002	43	-1,1928007E-006
2	0	0	1	1	3,301526254984969E+004	2,4207089E+000	2,4201989E+000	-6,395001947455074E-004	1,000000000000000E+000	2,6041184E-002	43	-1,5477177E-006
2	0	0	1	1	3,359502605092945E+004	2,3627319E+000	2,3622088E+000	-7,340283998902210E-004	1,000000000000000E+000	2,5621612E-002	43	-1,7339283E-006
2	0	0	1	1	3,417478945200937E+004	2,3047547E+000	2,3041847E+000	-8,630101456745237E-004	1,000000000000000E+000	2,5139540E-002	42	-1,9885347E-006
2	0	0	1	1	3,475455195308919E+004	2,2467780E+000	2,2461860E+000	-1,065510445904348E-003	1,000000000000000E+000	2,4560483E-002	42	-2,3933346E-006
2	0	0	1	1	3,533431435416918E+004	2,1888015E+000	2,1882310E+000	-1,371965328006566E-003	1,000000000000000E+000	2,3834344E-002	42	-3,0021770E-006
2	0	0	1	1	3,591407675524906E+004	2,1308246E+000	2,1302428E+000	-1,790944195080385E-003	1,000000000000000E+000	2,2897096E-002	42	-3,8151461E-006
2	0	0	1	1	3,649383925632894E+004	2,0728476E+000	2,0722766E+000	-2,314646899227252E-003	1,000000000000000E+000	2,1685401E-002	42	-4,7965887E-006
2	0	0	1	1	3,707360165740876E+004	2,0148706E+000	2,0142932E+000	-2,907075847414106E-003	1,000000000000000E+000	2,0146903E-002	42	-5,8557030E-006
2	0	0	1	1	3,765336705848866E+004	1,9568942E+000	1,9563378E+000	-3,566145262081329E-003	1,000000000000000E+000	1,8247927E-002	42	-6,9765847E-006
2	0	0	1	1	3,823313255956862E+004	1,8989172E+000	1,8983693E+000	-4,410123011182711E-003	1,000000000000000E+000	1,5918430E-002	42	-8,3720424E-006
2	0	0	1	1	3,881289856064843E+004	1,8409405E+000	1,8403741E+000	-5,475048421279450E-003	1,000000000000000E+000	1,3037560E-002	42	-1,0076137E-005
2	0	0	1	1	3,939266476172837E+004	1,7829636E+000	1,7824141E+000	-6,997236781758787E-003	1,000000000000000E+000	9,4283819E-003	42	-1,2471974E-005
2	0	0	1	1	3,997243076280830E+004	1,7249868E+000	1,7244898E+000	-8,965055387761288E-003	1,000000000000000E+000	4,7908807E-003	42	-1,5460148E-005
2	0	0	0	1	3,999982496285933E+004	1,7222385E+000	1,7217768E+000	-9,065309775956376E-003	1,000000000000000E+000	4,5427643E-003	42	-1,5608441E-005