File: Dati/210311/CV_LTO_MX_10 layer_grafite nuova_0.1_1mVs_06_CV_C03.mpt
EC-Lab ASCII FILE
Nb header lines : 57

Cyclic Voltammetry

Run on channel : 3 (SN 6807)
User :
Electrode connection : standard
Ewe ctrl range : min = 0,00 V, max = 5,00 V
Ewe,I filtering : 50 kHz
Safety Limits :
	Do not start on E overload
Channel : Grounded
Acquisition started on : 03/11/2021 17:24:33
Saved on :
	File : CV_LTO_MX_10 layer_grafite nuova_0.1_1mVs_06_CV_C03.mpr
	Directory : C:\Users\labsuperfici\Desktop\Biologic\Users\Prisca Viviani\210311\
	Host : 169.254.114.127
Device : VSP-300 (SN 0638)
Address : USB
EC-Lab for windows v11.31 (software)
Internet server v11.30 (firmware)
Command interpretor v11.31 (firmware)
Electrode material :
Initial state :
Electrolyte :
Comments :
Cable : standard
Reference electrode : SCE Saturated Calomel Electrode (0,241 V)
Electrode surface area : 0,001 cm²
Characteristic mass : 0,001 g
Equivalent Weight : 0,000 g/eq.
Density : 0,000 g/cm3
Cycle Definition : Charge/Discharge alternance
Ei (V)              0,000
vs.                 Eoc
dE/dt               0,600
dE/dt unit          mV/s
E1 (V)              1,000
vs.                 Ref
Step percent        50
N                   10
E range min (V)     0,000
E range max (V)     5,000
I Range             Auto
I Range min         Unset
I Range max         Unset
I Range init        Unset
Bandwidth           8
E2 (V)              3,000
vs.                 Ref
nc cycles           0
Reverse Scan        1
Ef (V)              0,000
vs.                 Eoc

mode	ox/red	error	control changes	counter inc.	time/s	control/V	Ewe/V	<I>/mA	cycle number	(Q-Qo)/C	I Range	P/W
2	0	0	0	0	9,133501190788485E+004	1,7222385E+000	1,7216852E+000	-3,026107512414455E-002	1,000000000000000E+000	0,0000000E+000	41	-5,2100044E-005
2	0	0	1	0	9,143089028521103E+004	1,6647110E+000	1,6641334E+000	-3,736438499659500E-002	1,000000000000000E+000	-3,1525423E-003	41	-6,2179322E-005
2	0	0	1	0	9,152751836233865E+004	1,6067340E+000	1,6061367E+000	-4,840271014314168E-002	1,000000000000000E+000	-7,2767818E-003	41	-7,7741366E-005
2	0	0	1	0	9,162414633946377E+004	1,5487574E+000	1,5481645E+000	-6,413691459986012E-002	1,000000000000000E+000	-1,2671967E-002	41	-9,9294492E-005
2	0	0	1	0	9,172077431660623E+004	1,4907806E+000	1,4902329E+000	-8,792682036238905E-002	1,000000000000000E+000	-1,9950286E-002	41	-1,3103144E-004
2	0	0	0	0	9,181740239376645E+004	1,4328036E+000	1,4321551E+000	-1,183976880731910E-001	1,000000000000000E+000	-2,9927477E-002	40	-1,6956386E-004
2	0	0	1	0	9,191403047092695E+004	1,3748268E+000	1,3741865E+000	-1,426895011292579E-001	1,000000000000000E+000	-4,2628556E-002	40	-1,9608199E-004
2	0	0	1	0	9,201065844806936E+004	1,3168501E+000	1,3162147E+000	-1,571109007969256E-001	1,000000000000000E+000	-5,7192843E-002	40	-2,0679168E-004
2	0	0	1	0	9,210728642519610E+004	1,2588733E+000	1,2582270E+000	-1,628137867853958E-001	1,000000000000000E+000	-7,2752208E-002	40	-2,0485670E-004
2	0	0	0	0	9,220391450232334E+004	1,2008965E+000	1,2002673E+000	-1,588532939091863E-001	1,000000000000000E+000	-8,8335566E-002	40	-1,9066641E-004
2	0	0	1	0	9,230054237947031E+004	1,1429197E+000	1,1422740E+000	-1,528279177910460E-001	1,000000000000000E+000	-1,0341229E-001	40	-1,7457137E-004
2	0	0	1	0	9,239717045663006E+004	1,0849428E+000	1,0843040E+000	-1,466137065049899E-001	1,000000000000000E+000	-1,1788308E-001	40	-1,5897382E-004
2	0	0	1	0	9,249379853379074E+004	1,0269660E+000	1,0263202E+000	-1,413827655413076E-001	1,000000000000000E+000	-1,3179280E-001	40	-1,4510399E-004
2	0	0	1	0	9,258792811151245E+004	1,0295651E+000	1,0289348E+000	-1,095472869307050E-001	1,000000000000000E+000	-1,4407355E-001	40	-1,1271702E-004
2	0	0	1	0	9,268455608864059E+004	1,0875417E+000	1,0869184E+000	-8,107174376169146E-002	1,000000000000000E+000	-1,5315051E-001	40	-8,8118366E-005
2	0	0	1	0	9,278118436576938E+004	1,1455185E+000	1,1448629E+000	-6,275363093264053E-002	1,000000000000000E+000	-1,6004302E-001	40	-7,1844304E-005
2	0	0	1	0	9,287781244292975E+004	1,2034955E+000	1,2028377E+000	-4,915520465931056E-002	1,000000000000000E+000	-1,6541553E-001	40	-5,9125734E-005
2	0	0	1	0	9,297444052009028E+004	1,2614723E+000	1,2608575E+000	-3,805701159048425E-002	1,000000000000000E+000	-1,6960040E-001	41	-4,7984468E-005
2	0	0	1	0	9,307106869724393E+004	1,3194493E+000	1,3188039E+000	-2,855302513594704E-002	1,000000000000000E+000	-1,7280319E-001	41	-3,7655842E-005
2	0	0	1	0	9,316769677437074E+004	1,3774258E+000	1,3768011E+000	-1,970232504537711E-002	1,000000000000000E+000	-1,7512718E-001	41	-2,7126183E-005
2	0	0	1	0	9,326432475149748E+004	1,4354025E+000	1,4347290E+000	-1,055817898219868E-002	1,000000000000000E+000	-1,7658941E-001	41	-1,5148125E-005
2	0	0	1	0	9,336095302863278E+004	1,4933794E+000	1,4927307E+000	7,251664583049852E-005	1,000000000000000E+000	-1,7710584E-001	43	1,0824782E-007
2	1	0	1	0	9,345758110579336E+004	1,5513563E+000	1,5506749E+000	1,441516296478629E-002	1,000000000000000E+000	-1,7644638E-001	41	2,2353232E-005
2	1	0	1	0	9,355420928295411E+004	1,6093330E+000	1,6086377E+000	4,203684716076550E-002	1,000000000000000E+000	-1,7394310E-001	41	6,7622059E-005
2	1	0	1	0	9,365083746010368E+004	1,6673101E+000	1,6665505E+000	8,988846792997382E-002	1,000000000000000E+000	-1,6758732E-001	41	1,4980367E-004
2	1	0	1	0	9,374746563722845E+004	1,7252868E+000	1,7246265E+000	1,342749128100249E-001	1,000000000000000E+000	-1,5668871E-001	40	2,3157407E-004
2	1	0	1	0	9,384409361435501E+004	1,7832636E+000	1,7826204E+000	1,680914972359502E-001	1,000000000000000E+000	-1,4197370E-001	40	2,9964335E-004
2	1	0	1	0	9,394072179149580E+004	1,8412405E+000	1,8405604E+000	1,889468531068887E-001	1,000000000000000E+000	-1,2461124E-001	40	3,4776810E-004
2	1	0	1	0	9,403734986865567E+004	1,8992170E+000	1,8985631E+000	1,964777090022816E-001	1,000000000000000E+000	-1,0587204E-001	40	3,7302534E-004
2	1	0	1	0	9,413397784581757E+004	1,9571939E+000	1,9565536E+000	1,893896576926770E-001	1,000000000000000E+000	-8,7101921E-002	40	3,7055102E-004
2	1	0	1	0	9,423060612296104E+004	2,0151708E+000	2,0145185E+000	1,677360186635588E-001	1,000000000000000E+000	-6,9728352E-002	40	3,3790732E-004
2	1	0	1	0	9,432723420008701E+004	2,0731475E+000	2,0724945E+000	1,348214735841420E-001	1,000000000000000E+000	-5,5037443E-002	40	2,7941677E-004
2	1	0	1	0	9,442386237721355E+004	2,1311240E+000	2,1304934E+000	9,983619744326222E-002	1,000000000000000E+000	-4,3728806E-002	40	2,1270035E-004
2	1	0	1	0	9,452049055435881E+004	2,1891012E+000	2,1884792E+000	7,490325876948267E-002	1,000000000000000E+000	-3,5379451E-002	40	1,6392423E-004
2	1	0	1	0	9,461711893151910E+004	2,2470777E+000	2,2464786E+000	5,920072122965181E-002	1,000000000000000E+000	-2,8938266E-002	40	1,3299315E-004
2	1	0	1	0	9,471391350864142E+004	2,3051550E+000	2,3045027E+000	4,830388644299044E-002	1,000000000000000E+000	-2,3770828E-002	41	1,1131644E-004
2	1	0	1	0	9,481054188577970E+004	2,3631315E+000	2,3624616E+000	4,150914649977899E-002	1,000000000000000E+000	-1,9452108E-002	41	9,8063763E-005
2	1	0	1	0	9,490716996290488E+004	2,4211082E+000	2,4204800E+000	3,736112186163315E-002	1,000000000000000E+000	-1,5655724E-002	41	9,0431851E-005
2	1	0	1	0	9,500379844003206E+004	2,4790852E+000	2,4784644E+000	3,464097831607077E-002	1,000000000000000E+000	-1,2171028E-002	41	8,5856431E-005
2	1	0	1	0	9,510042641718290E+004	2,5370622E+000	2,5364175E+000	3,189376766351862E-002	1,000000000000000E+000	-8,9526055E-003	41	8,0895908E-005
2	1	0	1	0	9,519705479434351E+004	2,5950387E+000	2,5944078E+000	2,918298984233270E-002	1,000000000000000E+000	-5,9965923E-003	41	7,5712574E-005
2	1	0	1	0	9,529368297150428E+004	2,6530159E+000	2,6523876E+000	2,722123704132606E-002	1,000000000000000E+000	-3,2685844E-003	41	7,2201270E-005
2	1	0	1	0	9,539031134863698E+004	2,7109923E+000	2,7103758E+000	2,503460506561672E-002	1,000000000000000E+000	-7,4197160E-004	41	6,7853187E-005
2	1	0	1	0	9,548693942576402E+004	2,7689691E+000	2,7683613E+000	2,341822218942324E-002	1,000000000000000E+000	1,5997373E-003	41	6,4830099E-005
2	1	0	1	0	9,558356770288944E+004	2,8269463E+000	2,8263104E+000	2,277864989458034E-002	1,000000000000000E+000	3,8308701E-003	41	6,4379536E-005
2	1	0	1	0	9,568019568004663E+004	2,8849227E+000	2,8843327E+000	2,232730819490925E-002	1,000000000000000E+000	6,0165818E-003	41	6,4399384E-005
2	1	0	1	0	9,577682405720605E+004	2,9428999E+000	2,9423182E+000	2,152112496663981E-002	1,000000000000000E+000	8,1467824E-003	41	6,3321997E-005
2	1	0	1	1	9,587203623469896E+004	3,0000279E+000	2,9994423E+000	2,113855229042988E-002	1,000000000000000E+000	1,0175885E-002	41	6,3403866E-005
2	1	0	1	1	9,596791441200182E+004	2,9425001E+000	2,9419298E+000	9,233879193788624E-003	1,000000000000000E+000	1,1390601E-002	41	2,7165424E-005
2	1	0	1	1	9,606454268912924E+004	2,8845229E+000	2,8839431E+000	5,752794011714728E-003	1,000000000000000E+000	1,2090535E-002	41	1,6590731E-005
2	1	0	1	1	9,616117056626547E+004	2,8265464E+000	2,8259008E+000	3,724631030760539E-003	1,000000000000000E+000	1,2533474E-002	42	1,0525438E-005
2	1	0	1	1	9,625779854342761E+004	2,7685692E+000	2,7679374E+000	2,509801902052201E-003	1,000000000000000E+000	1,2824157E-002	42	6,9469747E-006
2	1	0	1	1	9,635442662058771E+004	2,7105927E+000	2,7099946E+000	1,644298338916722E-003	1,000000000000000E+000	1,3017771E-002	42	4,4560397E-006
2	1	0	1	1	9,645105469773427E+004	2,6526158E+000	2,6520395E+000	7,114372338831686E-004	1,000000000000000E+000	1,3128113E-002	42	1,8867597E-006
2	0	0	1	1	9,654768267486081E+004	2,5946393E+000	2,5941074E+000	-5,601127214437725E-004	1,000000000000000E+000	1,3127005E-002	43	-1,4529926E-006
2	0	0	1	1	9,664431055198610E+004	2,5366621E+000	2,5361257E+000	-1,200350691556496E-003	1,000000000000000E+000	1,3038099E-002	42	-3,0442402E-006
2	0	0	1	1	9,674093882912910E+004	2,4786854E+000	2,4780993E+000	-1,990205899757250E-003	1,000000000000000E+000	1,2877442E-002	42	-4,9319278E-006
2	0	0	1	1	9,683756660629017E+004	2,4207089E+000	2,4201581E+000	-2,840120269433914E-003	1,000000000000000E+000	1,2637855E-002	42	-6,8735403E-006
2	0	0	1	1	9,693419468345103E+004	2,3627317E+000	2,3621802E+000	-3,349791630316401E-003	1,000000000000000E+000	1,2330838E-002	42	-7,9128113E-006
2	0	0	1	1	9,703082276059291E+004	2,3047547E+000	2,3042238E+000	-3,907854660605880E-003	1,000000000000000E+000	1,1975412E-002	42	-9,0045714E-006
2	0	0	1	1	9,712745073771873E+004	2,2467782E+000	2,2462125E+000	-4,652281435359770E-003	1,000000000000000E+000	1,1557896E-002	42	-1,0450012E-005
2	0	0	1	1	9,722407881484530E+004	2,1888015E+000	2,1882639E+000	-5,590204071825713E-003	1,000000000000000E+000	1,1058921E-002	42	-1,2232842E-005
2	0	0	1	1	9,732070689199260E+004	2,1308241E+000	2,1303074E+000	-6,845745638128828E-003	1,000000000000000E+000	1,0453955E-002	42	-1,4583543E-005
2	0	0	1	1	9,741733486915298E+004	2,0728476E+000	2,0723748E+000	-8,453898312636224E-003	1,000000000000000E+000	9,7112749E-003	42	-1,7519646E-005
2	0	0	1	1	9,751396294631460E+004	2,0148706E+000	2,0143263E+000	-1,052959183930458E-002	1,000000000000000E+000	8,7911300E-003	41	-2,1210035E-005
2	0	0	1	1	9,761059112344962E+004	1,9568939E+000	1,9563034E+000	-1,290185905433811E-002	1,000000000000000E+000	7,6526180E-003	41	-2,5239950E-005
2	0	0	0	1	9,770721900057743E+004	1,8989173E+000	1,8983406E+000	-1,571756043442363E-002	1,000000000000000E+000	6,2691155E-003	41	-2,9837283E-005
2	0	0	1	1	9,780384707770427E+004	1,8409405E+000	1,8403622E+000	-1,932719391825372E-002	1,000000000000000E+000	4,5755883E-003	41	-3,5569035E-005
2	0	0	1	1	9,790047505485662E+004	1,7829636E+000	1,7823797E+000	-2,430872731297967E-002	1,000000000000000E+000	2,4755094E-003	41	-4,3327382E-005
2	0	0	1	1	9,799710303201783E+004	1,7249869E+000	1,7244244E+000	-3,100113358869214E-002	1,000000000000000E+000	-1,9454183E-004	41	-5,3459109E-005
2	0	0	1	1	9,800166913092951E+004	1,7222385E+000	1,7217578E+000	-3,135088384812756E-002	1,000000000000000E+000	-3,3714244E-004	41	-5,3978627E-005