File: Dati/210311/CV_LTO_MX_10 layer_grafite nuova_0.1_1mVs_09_CV_C03.mpt
EC-Lab ASCII FILE
Nb header lines : 57

Cyclic Voltammetry

Run on channel : 3 (SN 6807)
User :
Electrode connection : standard
Ewe ctrl range : min = 0,00 V, max = 5,00 V
Ewe,I filtering : 50 kHz
Safety Limits :
	Do not start on E overload
Channel : Grounded
Acquisition started on : 03/11/2021 17:24:33
Saved on :
	File : CV_LTO_MX_10 layer_grafite nuova_0.1_1mVs_09_CV_C03.mpr
	Directory : C:\Users\labsuperfici\Desktop\Biologic\Users\Prisca Viviani\210311\
	Host : 169.254.114.127
Device : VSP-300 (SN 0638)
Address : USB
EC-Lab for windows v11.31 (software)
Internet server v11.30 (firmware)
Command interpretor v11.31 (firmware)
Electrode material :
Initial state :
Electrolyte :
Comments :
Cable : standard
Reference electrode : SCE Saturated Calomel Electrode (0,241 V)
Electrode surface area : 0,001 cm²
Characteristic mass : 0,001 g
Equivalent Weight : 0,000 g/eq.
Density : 0,000 g/cm3
Cycle Definition : Charge/Discharge alternance
Ei (V)              0,000
vs.                 Eoc
dE/dt               0,900
dE/dt unit          mV/s
E1 (V)              1,000
vs.                 Ref
Step percent        50
N                   10
E range min (V)     0,000
E range max (V)     5,000
I Range             Auto
I Range min         Unset
I Range max         Unset
I Range init        Unset
Bandwidth           8
E2 (V)              3,000
vs.                 Ref
nc cycles           0
Reverse Scan        1
Ef (V)              0,000
vs.                 Eoc

mode	ox/red	error	control changes	counter inc.	time/s	control/V	Ewe/V	<I>/mA	cycle number	(Q-Qo)/C	I Range	P/W
2	0	0	1	0	1,087166109964260E+005	1,7222385E+000	1,7217119E+000	-3,728624433279037E-002	1,000000000000000E+000	0,0000000E+000	41	-6,4196167E-005
2	0	0	1	0	1,087805298812838E+005	1,6647111E+000	1,6641717E+000	-4,343943249849286E-002	1,000000000000000E+000	-2,4794016E-003	41	-7,2290677E-005
2	0	0	1	0	1,088449485660258E+005	1,6067343E+000	1,6062036E+000	-5,481603318042505E-002	1,000000000000000E+000	-5,6299190E-003	41	-8,8045708E-005
2	0	0	1	0	1,089093672508021E+005	1,5487573E+000	1,5482154E+000	-7,020789252194926E-002	1,000000000000000E+000	-9,6352315E-003	41	-1,0869694E-004
2	0	0	1	0	1,089737859355866E+005	1,4907806E+000	1,4903225E+000	-9,124161866891967E-002	1,000000000000000E+000	-1,4807558E-002	41	-1,3597944E-004
2	0	0	1	0	1,090382046203467E+005	1,4328038E+000	1,4322131E+000	-1,176392312630521E-001	1,000000000000000E+000	-2,1523830E-002	40	-1,6848445E-004
2	0	0	1	0	1,091026233050860E+005	1,3748270E+000	1,3742452E+000	-1,429519905064800E-001	1,000000000000000E+000	-2,9947938E-002	40	-1,9645109E-004
2	0	0	1	0	1,091670420898402E+005	1,3168501E+000	1,3162422E+000	-1,621884203465416E-001	1,000000000000000E+000	-3,9820265E-002	40	-2,1347924E-004
2	0	0	1	0	1,092314606746227E+005	1,2588732E+000	1,2583115E+000	-1,751096315400340E-001	1,000000000000000E+000	-5,0719280E-002	40	-2,2034247E-004
2	0	0	1	0	1,092958793594074E+005	1,2008965E+000	1,2003058E+000	-1,802470134972269E-001	1,000000000000000E+000	-6,2225021E-002	40	-2,1635155E-004
2	0	0	1	0	1,093602980441480E+005	1,1429195E+000	1,1423432E+000	-1,785374183045056E-001	1,000000000000000E+000	-7,3799573E-002	40	-2,0395100E-004
2	0	0	1	0	1,094247166288882E+005	1,0849429E+000	1,0843843E+000	-1,753440166864026E-001	1,000000000000000E+000	-8,5208513E-002	40	-1,9014030E-004
2	0	0	1	0	1,094891354136609E+005	1,0269661E+000	1,0264053E+000	-1,716930822140643E-001	1,000000000000000E+000	-9,6386693E-002	40	-1,7622669E-004
2	0	0	1	0	1,095518887988344E+005	1,0295650E+000	1,0289857E+000	-1,355701250265553E-001	1,000000000000000E+000	-1,0641306E-001	40	-1,3949972E-004
2	0	0	1	0	1,096163075836077E+005	1,0875419E+000	1,0869787E+000	-1,009007768619453E-001	1,000000000000000E+000	-1,1392518E-001	40	-1,0967699E-004
2	0	0	1	0	1,096807261683478E+005	1,1455185E+000	1,1449385E+000	-7,823269554068535E-002	1,000000000000000E+000	-1,1964781E-001	40	-8,9571622E-005
2	0	0	1	0	1,097451450530889E+005	1,2034954E+000	1,2028919E+000	-6,125218425996783E-002	1,000000000000000E+000	-1,2411316E-001	40	-7,3679759E-005
2	0	0	1	0	1,098095636378736E+005	1,2614721E+000	1,2609236E+000	-4,740178362433867E-002	1,000000000000000E+000	-1,2759756E-001	41	-5,9770027E-005
2	0	0	1	0	1,098739824226550E+005	1,3194492E+000	1,3189218E+000	-3,547221412071332E-002	1,000000000000000E+000	-1,3025586E-001	41	-4,6785077E-005
2	0	0	1	0	1,099384011074100E+005	1,3774258E+000	1,3768580E+000	-2,443723885441762E-002	1,000000000000000E+000	-1,3217984E-001	41	-3,3646607E-005
2	0	0	1	0	1,100028198921492E+005	1,4354029E+000	1,4348110E+000	-1,328379584889998E-002	1,000000000000000E+000	-1,3339415E-001	41	-1,9059737E-005
2	0	0	1	0	1,100672384769095E+005	1,4933796E+000	1,4928179E+000	-9,085180113190712E-004	1,000000000000000E+000	-1,3385695E-001	42	-1,3562519E-006
2	1	0	1	0	1,101316573616937E+005	1,5513563E+000	1,5507635E+000	1,438772112984811E-002	1,000000000000000E+000	-1,3344187E-001	41	2,2311953E-005
2	1	0	1	0	1,101960760464699E+005	1,6093333E+000	1,6087204E+000	3,742035602922456E-002	1,000000000000000E+000	-1,3185184E-001	41	6,0198890E-005
2	1	0	1	0	1,102604948312121E+005	1,6673101E+000	1,6666405E+000	7,704581395619131E-002	1,000000000000000E+000	-1,2820779E-001	41	1,2840767E-004
2	1	0	1	0	1,103249136159506E+005	1,7252868E+000	1,7246854E+000	1,184630578003596E-001	1,000000000000000E+000	-1,2189285E-001	40	2,0431151E-004
2	1	0	1	0	1,103893322007307E+005	1,7832637E+000	1,7826732E+000	1,552017002009218E-001	1,000000000000000E+000	-1,1303378E-001	40	2,7667391E-004
2	1	0	1	0	1,104537509855141E+005	1,8412405E+000	1,8406310E+000	1,820977097331054E-001	1,000000000000000E+000	-1,0210412E-001	40	3,3517470E-004
2	1	0	1	0	1,105181695702723E+005	1,8992171E+000	1,8986223E+000	1,976750287225113E-001	1,000000000000000E+000	-8,9810371E-002	40	3,7531022E-004
2	1	0	1	0	1,105825884550137E+005	1,9571941E+000	1,9566146E+000	2,018131081013372E-001	1,000000000000000E+000	-7,6873496E-002	40	3,9487047E-004
2	1	0	1	0	1,106470071397665E+005	2,0151711E+000	2,0145965E+000	1,936617590515981E-001	1,000000000000000E+000	-6,4066239E-002	40	3,9015029E-004
2	1	0	1	0	1,107114258245516E+005	2,0731475E+000	2,0725772E+000	1,728860223709590E-001	1,000000000000000E+000	-5,2190691E-002	40	3,5831964E-004
2	1	0	1	0	1,107758448093331E+005	2,1311243E+000	2,1306007E+000	1,427289348185186E-001	1,000000000000000E+000	-4,1983414E-002	40	3,0409836E-004
2	1	0	1	0	1,108402634940743E+005	2,1891015E+000	2,1885650E+000	1,116889542566257E-001	1,000000000000000E+000	-3,3805601E-002	40	2,4443853E-004
2	1	0	1	0	1,109046821788151E+005	2,2470782E+000	2,2465496E+000	8,734974928734862E-002	1,000000000000000E+000	-2,7437698E-002	40	1,9623555E-004
2	1	0	1	0	1,109691009635879E+005	2,3050547E+000	2,3045301E+000	7,088310902942851E-002	1,000000000000000E+000	-2,2371238E-002	40	1,6335226E-004
2	1	0	1	0	1,110335197483723E+005	2,3630316E+000	2,3624966E+000	5,924663785997897E-002	1,000000000000000E+000	-1,8194227E-002	40	1,3996998E-004
2	1	0	1	0	1,110979384331362E+005	2,4210086E+000	2,4204977E+000	5,067704818334462E-002	1,000000000000000E+000	-1,4668967E-002	40	1,2266368E-004
2	1	0	1	0	1,111624682178507E+005	2,4790852E+000	2,4785085E+000	4,564030885398454E-002	1,000000000000000E+000	-1,1569797E-002	41	1,1311990E-004
2	1	0	1	0	1,112268869025991E+005	2,5370619E+000	2,5364988E+000	4,148536088570448E-002	1,000000000000000E+000	-8,7628150E-003	41	1,0522757E-004
2	1	0	1	0	1,112913056873833E+005	2,5950389E+000	2,5944886E+000	3,785186621164005E-002	1,000000000000000E+000	-6,2061758E-003	41	9,8206234E-005
2	1	0	1	0	1,113557244721667E+005	2,6530156E+000	2,6524551E+000	3,518189171017388E-002	1,000000000000000E+000	-3,8581537E-003	41	9,3318391E-005
2	1	0	1	0	1,114201430569119E+005	2,7109923E+000	2,7104554E+000	3,241394312829771E-002	1,000000000000000E+000	-1,6766553E-003	41	8,7856548E-005
2	1	0	1	0	1,114845618416529E+005	2,7689691E+000	2,7684419E+000	3,027237839588032E-002	1,000000000000000E+000	3,4227624E-004	41	8,3807325E-005
2	1	0	1	0	1,115489805264191E+005	2,8269460E+000	2,8264234E+000	2,930762390518801E-002	1,000000000000000E+000	2,2596968E-003	41	8,2835752E-005
2	1	0	1	0	1,116133992112040E+005	2,8849227E+000	2,8843834E+000	2,877353985706660E-002	1,000000000000000E+000	4,1376972E-003	41	8,2993924E-005
2	1	0	1	0	1,116778178959729E+005	2,9428997E+000	2,9423683E+000	2,831771711903663E-002	1,000000000000000E+000	5,9782108E-003	41	8,3321152E-005
2	1	0	0	1	1,117412928809391E+005	3,0000279E+000	2,9994843E+000	2,759325086048361E-002	1,000000000000000E+000	7,7557955E-003	41	8,2765524E-005
2	1	0	1	1	1,118052117657979E+005	2,9424996E+000	2,9419963E+000	1,226401378102118E-002	1,000000000000000E+000	8,8237477E-003	41	3,6080684E-005
2	1	0	1	1	1,118696305505801E+005	2,8845229E+000	2,8839962E+000	7,792783696064037E-003	1,000000000000000E+000	9,4520897E-003	41	2,2474358E-005
2	1	0	1	1	1,119340491353632E+005	2,8265462E+000	2,8260679E+000	5,162634265753099E-003	1,000000000000000E+000	9,8585337E-003	41	1,4589955E-005
2	1	0	1	1	1,119984677201199E+005	2,7685697E+000	2,7680180E+000	3,518721401286458E-003	1,000000000000000E+000	1,0130521E-002	42	9,7398843E-006
2	1	0	1	1	1,120628864048598E+005	2,7105927E+000	2,7100532E+000	2,265684980106731E-003	1,000000000000000E+000	1,0312167E-002	42	6,1401270E-006
2	1	0	1	1	1,121273050896166E+005	2,6526158E+000	2,6521013E+000	9,115161729474422E-004	1,000000000000000E+000	1,0413053E-002	42	2,4174333E-006
2	0	0	1	1	1,121917236744005E+005	2,5946388E+000	2,5941749E+000	-6,024606790263915E-004	1,000000000000000E+000	1,0413475E-002	43	-1,5628883E-006
2	0	0	1	1	1,122561422591811E+005	2,5366623E+000	2,5361738E+000	-1,509130812954602E-003	1,000000000000000E+000	1,0344177E-002	42	-3,8274179E-006
2	0	0	1	1	1,123205610439221E+005	2,4786851E+000	2,4781926E+000	-2,609026001246718E-003	1,000000000000000E+000	1,0207678E-002	42	-6,4656688E-006
2	0	0	1	1	1,123849795286616E+005	2,4207084E+000	2,4202464E+000	-3,716953222170347E-003	1,000000000000000E+000	9,9990973E-003	42	-8,9959422E-006
2	0	0	1	1	1,124493982134378E+005	2,3627317E+000	2,3622451E+000	-4,355278691890098E-003	1,000000000000000E+000	9,7337477E-003	42	-1,0288236E-005
2	0	0	1	1	1,125138168982212E+005	2,3047550E+000	2,3042970E+000	-5,094928481587616E-003	1,000000000000000E+000	9,4265556E-003	42	-1,1740228E-005
2	0	0	1	1	1,125782353829839E+005	2,2467780E+000	2,2462969E+000	-6,026891486319463E-003	1,000000000000000E+000	9,0657193E-003	42	-1,3538188E-005
2	0	0	1	1	1,126426541677241E+005	2,1888013E+000	2,1883330E+000	-7,203308932423713E-003	1,000000000000000E+000	8,6373100E-003	42	-1,5763238E-005
2	0	0	1	1	1,127070728524746E+005	2,1308248E+000	2,1303997E+000	-8,618279784095767E-003	1,000000000000000E+000	8,1257066E-003	42	-1,8360381E-005
2	0	0	1	1	1,127714914372592E+005	2,0728476E+000	2,0723362E+000	-1,042596717784787E-002	1,000000000000000E+000	7,5099398E-003	41	-2,1606109E-005
2	0	0	1	1	1,128359101220421E+005	2,0148709E+000	2,0143576E+000	-1,265201383802461E-002	1,000000000000000E+000	6,7659593E-003	41	-2,5485680E-005
2	0	0	1	1	1,129003288067860E+005	1,9568942E+000	1,9563845E+000	-1,528737683978496E-002	1,000000000000000E+000	5,8626640E-003	41	-2,9907987E-005
2	0	0	1	1	1,129647474915257E+005	1,8989174E+000	1,8983858E+000	-1,842197991881786E-002	1,000000000000000E+000	4,7773360E-003	41	-3,4972025E-005
2	0	0	1	1	1,130291661762958E+005	1,8409405E+000	1,8404009E+000	-2,240537527330388E-002	1,000000000000000E+000	3,4628683E-003	41	-4,1234875E-005
2	0	0	1	1	1,130935847610796E+005	1,7829639E+000	1,7824328E+000	-2,770402006426870E-002	1,000000000000000E+000	1,8555399E-003	41	-4,9380553E-005
2	0	0	1	1	1,131580035458466E+005	1,7249869E+000	1,7244655E+000	-3,507926498372005E-002	1,000000000000000E+000	-1,6184329E-004	41	-6,0492981E-005
2	0	0	1	1	1,131610475451222E+005	1,7222385E+000	1,7217157E+000	-3,547646190106341E-002	1,000000000000000E+000	-2,6940179E-004	41	-6,1080384E-005