File: Dati/210311/CV_LTO_MX_10 layer_grafite nuova_0.1_1mVs_03_CV_C03.mpt
EC-Lab ASCII FILE
Nb header lines : 57

Cyclic Voltammetry

Run on channel : 3 (SN 6807)
User :
Electrode connection : standard
Ewe ctrl range : min = 0,00 V, max = 5,00 V
Ewe,I filtering : 50 kHz
Safety Limits :
	Do not start on E overload
Channel : Grounded
Acquisition started on : 03/11/2021 17:24:33
Saved on :
	File : CV_LTO_MX_10 layer_grafite nuova_0.1_1mVs_03_CV_C03.mpr
	Directory : C:\Users\labsuperfici\Desktop\Biologic\Users\Prisca Viviani\210311\
	Host : 169.254.114.127
Device : VSP-300 (SN 0638)
Address : USB
EC-Lab for windows v11.31 (software)
Internet server v11.30 (firmware)
Command interpretor v11.31 (firmware)
Electrode material :
Initial state :
Electrolyte :
Comments :
Cable : standard
Reference electrode : SCE Saturated Calomel Electrode (0,241 V)
Electrode surface area : 0,001 cm²
Characteristic mass : 0,001 g
Equivalent Weight : 0,000 g/eq.
Density : 0,000 g/cm3
Cycle Definition : Charge/Discharge alternance
Ei (V)              0,000
vs.                 Eoc
dE/dt               0,300
dE/dt unit          mV/s
E1 (V)              1,000
vs.                 Ref
Step percent        50
N                   10
E range min (V)     0,000
E range max (V)     5,000
I Range             Auto
I Range min         Unset
I Range max         Unset
I Range init        Unset
Bandwidth           8
E2 (V)              3,000
vs.                 Ref
nc cycles           0
Reverse Scan        1
Ef (V)              0,000
vs.                 Eoc

mode	ox/red	error	control changes	counter inc.	time/s	control/V	Ewe/V	<I>/mA	cycle number	(Q-Qo)/C	I Range	P/W
2	0	0	0	0	6,000081480011402E+004	1,7222385E+000	1,7216623E+000	-1,624397747218609E-002	1,000000000000000E+000	0,0000000E+000	41	-2,7966644E-005
2	0	0	1	0	6,019257180047128E+004	1,6647108E+000	1,6640743E+000	-2,364269363651139E-002	1,000000000000000E+000	-3,8431587E-003	41	-3,9343198E-005
2	0	0	1	0	6,038582790083128E+004	1,6067342E+000	1,6061145E+000	-3,220477026691887E-002	1,000000000000000E+000	-9,2062037E-003	41	-5,1724550E-005
2	0	0	1	0	6,057908390119113E+004	1,5487573E+000	1,5481390E+000	-4,573503643156507E-002	1,000000000000000E+000	-1,6635315E-002	41	-7,0804192E-005
2	0	0	1	0	6,077234000155117E+004	1,4907805E+000	1,4902284E+000	-6,975316976561211E-002	1,000000000000000E+000	-2,7596332E-002	41	-1,0394816E-004
2	0	0	1	0	6,096559610191127E+004	1,4328036E+000	1,4322538E+000	-9,612767666757427E-002	1,000000000000000E+000	-4,3803502E-002	41	-1,3767924E-004
2	0	0	1	0	6,115885230227106E+004	1,3748269E+000	1,3741974E+000	-1,103410486545654E-001	1,000000000000000E+000	-6,3962400E-002	40	-1,5163037E-004
2	0	0	1	0	6,135210840263101E+004	1,3168501E+000	1,3161775E+000	-1,145670899735178E-001	1,000000000000000E+000	-8,5852392E-002	40	-1,5079063E-004
2	0	0	1	0	6,154536430299107E+004	1,2588733E+000	1,2582257E+000	-1,080558275735355E-001	1,000000000000000E+000	-1,0744455E-001	40	-1,3595862E-004
2	0	0	1	0	6,173862050335103E+004	1,2008965E+000	1,2002498E+000	-1,005627506022256E-001	1,000000000000000E+000	-1,2761988E-001	40	-1,2070042E-004
2	0	0	1	0	6,193187640371104E+004	1,1429197E+000	1,1422709E+000	-9,360174328867377E-002	1,000000000000000E+000	-1,4637619E-001	40	-1,0691855E-004
2	0	0	1	0	6,212513250407091E+004	1,0849428E+000	1,0842863E+000	-8,778979230178097E-002	1,000000000000000E+000	-1,6388935E-001	40	-9,5189273E-005
2	0	0	1	0	6,231838870443089E+004	1,0269660E+000	1,0262980E+000	-8,344324602659980E-002	1,000000000000000E+000	-1,8042591E-001	40	-8,5637643E-005
2	0	0	1	0	6,250664790478157E+004	1,0295650E+000	1,0289166E+000	-6,247262820983768E-002	1,000000000000000E+000	-1,9474451E-001	40	-6,4279127E-005
2	0	0	1	0	6,269990440514160E+004	1,0875418E+000	1,0869352E+000	-4,511126594245340E-002	1,000000000000000E+000	-2,0496254E-001	41	-4,9033020E-005
2	0	0	1	0	6,289316090550157E+004	1,1455185E+000	1,1449012E+000	-3,431848379844116E-002	1,000000000000000E+000	-2,1256159E-001	41	-3,9291273E-005
2	0	0	1	0	6,308641750586143E+004	1,2034955E+000	1,2028555E+000	-2,644777204107973E-002	1,000000000000000E+000	-2,1838614E-001	41	-3,1812848E-005
2	0	0	1	0	6,327967380622146E+004	1,2614721E+000	1,2608383E+000	-2,014098923989094E-002	1,000000000000000E+000	-2,2285467E-001	41	-2,5394531E-005
2	0	0	1	0	6,347293030658143E+004	1,3194491E+000	1,3188111E+000	-1,478674085417143E-002	1,000000000000000E+000	-2,2620578E-001	41	-1,9500918E-005
2	0	0	1	0	6,366618670694140E+004	1,3774257E+000	1,3767750E+000	-9,773098814085820E-003	1,000000000000000E+000	-2,2856328E-001	41	-1,3455358E-005
2	0	0	1	0	6,385944320730143E+004	1,4354025E+000	1,4347752E+000	-4,543383971168845E-003	1,000000000000000E+000	-2,2994533E-001	42	-6,5187346E-006
2	1	0	1	0	6,405269970766129E+004	1,4933795E+000	1,4927121E+000	1,671262838624003E-003	1,000000000000000E+000	-2,3023634E-001	42	2,4947144E-006
2	1	0	1	0	6,424595630802127E+004	1,5513563E+000	1,5506920E+000	1,106296317843269E-002	1,000000000000000E+000	-2,2909009E-001	41	1,7155247E-005
2	1	0	1	0	6,443921280838130E+004	1,6093330E+000	1,6086422E+000	3,800588161087909E-002	1,000000000000000E+000	-2,2497909E-001	41	6,1137864E-005
2	1	0	1	0	6,463246930874127E+004	1,6673099E+000	1,6665494E+000	8,321795068681359E-002	1,000000000000000E+000	-2,1319143E-001	41	1,3868682E-004
2	1	0	1	0	6,482572590910114E+004	1,7252866E+000	1,7246048E+000	1,187406579802333E-001	1,000000000000000E+000	-1,9343574E-001	40	2,0478072E-004
2	1	0	1	0	6,501898240946117E+004	1,7832633E+000	1,7825842E+000	1,397953320102578E-001	1,000000000000000E+000	-1,6820806E-001	40	2,4919695E-004
2	1	0	1	0	6,521223850982115E+004	1,8412402E+000	1,8405764E+000	1,468478130117281E-001	1,000000000000000E+000	-1,4027703E-001	40	2,7028463E-004
2	1	0	1	0	6,540549491018115E+004	1,8992171E+000	1,8985522E+000	1,393377037268433E-001	1,000000000000000E+000	-1,1235714E-001	40	2,6453991E-004
2	1	0	1	0	6,559875139557838E+004	1,9571940E+000	1,9565312E+000	1,172048350960986E-001	1,000000000000000E+000	-8,7345555E-002	40	2,2931492E-004
2	1	0	1	0	6,579200784985132E+004	2,0151706E+000	2,0145493E+000	8,438436631651036E-002	1,000000000000000E+000	-6,7748472E-002	40	1,6999646E-004
2	1	0	1	0	6,598526480412058E+004	2,0731475E+000	2,0725224E+000	5,722743753590920E-002	1,000000000000000E+000	-5,4294840E-002	40	1,1860514E-004
2	1	0	1	0	6,617852125844127E+004	2,1311243E+000	2,1304655E+000	4,236768746757991E-002	1,000000000000000E+000	-4,4815879E-002	41	9,0262896E-005
2	1	0	1	0	6,637177771270857E+004	2,1891010E+000	2,1884580E+000	3,418951933723852E-002	1,000000000000000E+000	-3,7476961E-002	41	7,4822325E-005
2	1	0	1	0	6,656503416698379E+004	2,2470779E+000	2,2464333E+000	2,903634604930294E-002	1,000000000000000E+000	-3,1381708E-002	41	6,5228211E-005
2	1	0	1	0	6,675829072130600E+004	2,3050549E+000	2,3044152E+000	2,543792238842180E-002	1,000000000000000E+000	-2,6125677E-002	41	5,8619535E-005
2	1	0	1	0	6,695154717556763E+004	2,3630319E+000	2,3624055E+000	2,284996007646968E-002	1,000000000000000E+000	-2,1462070E-002	41	5,3980872E-005
2	1	0	1	0	6,714480362984596E+004	2,4210086E+000	2,4203944E+000	2,116601903386223E-002	1,000000000000000E+000	-1,7212110E-002	41	5,1230116E-005
2	1	0	1	0	6,733806018416677E+004	2,4789851E+000	2,4783161E+000	1,985115332906512E-002	1,000000000000000E+000	-1,3232702E-002	41	4,9197432E-005
2	1	0	1	0	6,753131663842592E+004	2,5369620E+000	2,5363598E+000	1,837684231404958E-002	1,000000000000000E+000	-9,5265657E-003	41	4,6610283E-005
2	1	0	1	0	6,772457269271044E+004	2,5949390E+000	2,5943017E+000	1,679466094295055E-002	1,000000000000000E+000	-6,1186724E-003	41	4,3570417E-005
2	1	0	1	0	6,791782924702752E+004	2,6529155E+000	2,6523049E+000	1,568677475551390E-002	1,000000000000000E+000	-2,9651891E-003	41	4,1606108E-005
2	1	0	1	0	6,811108570128311E+004	2,7108927E+000	2,7102835E+000	1,447261720562792E-002	1,000000000000000E+000	-4,0770436E-005	41	3,9224895E-005
2	1	0	1	0	6,830434215557389E+004	2,7688689E+000	2,7682586E+000	1,357036865760969E-002	1,000000000000000E+000	2,6708217E-003	41	3,7566289E-005
2	1	0	1	0	6,849759860988637E+004	2,8268461E+000	2,8262372E+000	1,341487302980611E-002	1,000000000000000E+000	5,2792197E-003	41	3,7913615E-005
2	1	0	1	0	6,869085516414046E+004	2,8848231E+000	2,8842103E+000	1,315827531893610E-002	1,000000000000000E+000	7,8714602E-003	41	3,7951235E-005
2	1	0	1	0	6,888411161843850E+004	2,9428000E+000	2,9422112E+000	1,246682752404536E-002	1,000000000000000E+000	1,0353255E-002	41	3,6680038E-005
2	1	0	1	1	6,907486877333175E+004	3,0000279E+000	2,9994462E+000	1,240731879427724E-002	1,000000000000000E+000	1,2730707E-002	41	3,7215086E-005
2	1	0	1	1	6,926662532793725E+004	2,9425001E+000	2,9418774E+000	5,244350802806955E-003	1,000000000000000E+000	1,4135988E-002	41	1,5428237E-005
2	1	0	1	1	6,945988138225430E+004	2,8845227E+000	2,8838656E+000	3,174694131145489E-003	1,000000000000000E+000	1,4916696E-002	42	9,1553911E-006
2	1	0	1	1	6,965313663654216E+004	2,8265464E+000	2,8259294E+000	1,962082694989845E-003	1,000000000000000E+000	1,5390219E-002	42	5,5447072E-006
2	1	0	1	1	6,984639239079889E+004	2,7685692E+000	2,7679570E+000	1,276406606636665E-003	1,000000000000000E+000	1,5684757E-002	42	3,5330386E-006
2	1	0	1	1	7,003964804511837E+004	2,7105927E+000	2,7099724E+000	8,274760575360182E-004	1,000000000000000E+000	1,5875209E-002	42	2,2424372E-006
2	1	0	1	1	7,023290369939990E+004	2,6526158E+000	2,6519694E+000	3,478676510690259E-004	1,000000000000000E+000	1,5980709E-002	43	9,2253435E-007
2	0	0	1	1	7,042715875342418E+004	2,5943391E+000	2,5937691E+000	-3,660962784647840E-004	1,000000000000000E+000	1,5965713E-002	43	-9,4956920E-007
2	0	0	1	1	7,062041450774332E+004	2,5363622E+000	2,5358474E+000	-7,172661677277131E-004	1,000000000000000E+000	1,5852192E-002	43	-1,8188775E-006
2	0	0	1	1	7,081367016202281E+004	2,4783852E+000	2,4777887E+000	-1,143023392885682E-003	1,000000000000000E+000	1,5661670E-002	42	-2,8321704E-006
2	0	0	1	1	7,100692591628782E+004	2,4204087E+000	2,4198267E+000	-1,608500383798956E-003	1,000000000000000E+000	1,5383323E-002	42	-3,8922922E-006
2	0	0	1	1	7,120018157060852E+004	2,3624320E+000	2,3618290E+000	-1,930249188828583E-003	1,000000000000000E+000	1,5027548E-002	42	-4,5589186E-006
2	0	0	1	1	7,139343722488135E+004	2,3044553E+000	2,3038886E+000	-2,246926812091272E-003	1,000000000000000E+000	1,4614764E-002	42	-5,1766688E-006
2	0	0	1	1	7,158669297915068E+004	2,2464781E+000	2,2458692E+000	-2,704519674725937E-003	1,000000000000000E+000	1,4126408E-002	42	-6,0739972E-006
2	0	0	1	1	7,177994863347244E+004	2,1885016E+000	2,1879067E+000	-3,346346891742763E-003	1,000000000000000E+000	1,3532534E-002	42	-7,3214951E-006
2	0	0	1	1	7,197320388773963E+004	2,1305246E+000	2,1299324E+000	-4,224526195539865E-003	1,000000000000000E+000	1,2792737E-002	42	-8,9979549E-006
2	0	0	1	1	7,216646004201425E+004	2,0725477E+000	2,0720046E+000	-5,385217969469308E-003	1,000000000000000E+000	1,1856698E-002	42	-1,1158196E-005
2	0	0	1	1	7,235971529633668E+004	2,0145710E+000	2,0140331E+000	-6,834460713779481E-003	1,000000000000000E+000	1,0666512E-002	42	-1,3764830E-005
2	0	0	1	1	7,255297155059827E+004	1,9565946E+000	1,9560379E+000	-8,384932694149271E-003	1,000000000000000E+000	9,1854036E-003	42	-1,6401245E-005
2	0	0	1	1	7,274622770487808E+004	1,8986174E+000	1,8980163E+000	-1,033755746348831E-002	1,000000000000000E+000	7,3735304E-003	41	-1,9620853E-005
2	0	0	1	1	7,293948375919863E+004	1,8406405E+000	1,8400220E+000	-1,282527358091656E-002	1,000000000000000E+000	5,1321895E-003	41	-2,3598785E-005
2	0	0	1	1	7,313273981345608E+004	1,7826637E+000	1,7820294E+000	-1,629153693910956E-002	1,000000000000000E+000	2,3290184E-003	41	-2,9031997E-005
2	0	0	1	1	7,332599596774206E+004	1,7246869E+000	1,7240686E+000	-2,084346014974098E-002	1,000000000000000E+000	-1,2601317E-003	41	-3,5935554E-005
2	0	0	0	1	7,333412796580303E+004	1,7222385E+000	1,7216623E+000	-2,104810930788520E-002	1,000000000000000E+000	-1,4309764E-003	41	-3,6237736E-005