File: Dati/210311/CV_LTO_MX_10 layer_grafite nuova_0.1_1mVs_04_CV_C03.mpt
EC-Lab ASCII FILE
Nb header lines : 57

Cyclic Voltammetry

Run on channel : 3 (SN 6807)
User :
Electrode connection : standard
Ewe ctrl range : min = 0,00 V, max = 5,00 V
Ewe,I filtering : 50 kHz
Safety Limits :
	Do not start on E overload
Channel : Grounded
Acquisition started on : 03/11/2021 17:24:33
Saved on :
	File : CV_LTO_MX_10 layer_grafite nuova_0.1_1mVs_04_CV_C03.mpr
	Directory : C:\Users\labsuperfici\Desktop\Biologic\Users\Prisca Viviani\210311\
	Host : 169.254.114.127
Device : VSP-300 (SN 0638)
Address : USB
EC-Lab for windows v11.31 (software)
Internet server v11.30 (firmware)
Command interpretor v11.31 (firmware)
Electrode material :
Initial state :
Electrolyte :
Comments :
Cable : standard
Reference electrode : SCE Saturated Calomel Electrode (0,241 V)
Electrode surface area : 0,001 cm²
Characteristic mass : 0,001 g
Equivalent Weight : 0,000 g/eq.
Density : 0,000 g/cm3
Cycle Definition : Charge/Discharge alternance
Ei (V)              0,000
vs.                 Eoc
dE/dt               0,400
dE/dt unit          mV/s
E1 (V)              1,000
vs.                 Ref
Step percent        50
N                   10
E range min (V)     0,000
E range max (V)     5,000
I Range             Auto
I Range min         Unset
I Range max         Unset
I Range init        Unset
Bandwidth           8
E2 (V)              3,000
vs.                 Ref
nc cycles           0
Reverse Scan        1
Ef (V)              0,000
vs.                 Eoc

mode	ox/red	error	control changes	counter inc.	time/s	control/V	Ewe/V	<I>/mA	cycle number	(Q-Qo)/C	I Range	P/W
2	0	0	1	0	7,333447796572046E+004	1,7222385E+000	1,7216394E+000	-2,235034853219986E-002	1,000000000000000E+000	0,0000000E+000	41	-3,8479240E-005
2	0	0	1	0	7,347829553172970E+004	1,6647110E+000	1,6640825E+000	-3,000279555930904E-002	1,000000000000000E+000	-3,7231513E-003	41	-4,9927126E-005
2	0	0	1	0	7,362323739746003E+004	1,6067344E+000	1,6061298E+000	-3,992161856209803E-002	1,000000000000000E+000	-8,7609971E-003	41	-6,4119296E-005
2	0	0	1	0	7,376817906315008E+004	1,5487574E+000	1,5481442E+000	-5,519233552957492E-002	1,000000000000000E+000	-1,5573544E-002	41	-8,5445696E-005
2	0	0	1	0	7,391312122885254E+004	1,4907807E+000	1,4902133E+000	-8,105838290208787E-002	1,000000000000000E+000	-2,5297159E-002	41	-1,2079428E-004
2	0	0	1	0	7,405806299459335E+004	1,4328039E+000	1,4321513E+000	-1,122166982579380E-001	1,000000000000000E+000	-3,9396774E-002	40	-1,6071129E-004
2	0	0	1	0	7,420300496031740E+004	1,3748270E+000	1,3741945E+000	-1,313269018280911E-001	1,000000000000000E+000	-5,7217818E-002	40	-1,8046871E-004
2	0	0	1	0	7,434794672600972E+004	1,3168502E+000	1,3161873E+000	-1,393118032536667E-001	1,000000000000000E+000	-7,6949000E-002	40	-1,8336042E-004
2	0	0	1	0	7,449288869171590E+004	1,2588732E+000	1,2582123E+000	-1,354451064420923E-001	1,000000000000000E+000	-9,6999072E-002	40	-1,7041870E-004
2	0	0	1	0	7,463783055745647E+004	1,2008965E+000	1,2002428E+000	-1,275834058251499E-001	1,000000000000000E+000	-1,1607539E-001	40	-1,5313106E-004
2	0	0	1	0	7,478277222317620E+004	1,1429198E+000	1,1422731E+000	-1,197290768986508E-001	1,000000000000000E+000	-1,3399728E-001	40	-1,3676329E-004
2	0	0	1	0	7,492771438886784E+004	1,0849429E+000	1,0842825E+000	-1,129072591155582E-001	1,000000000000000E+000	-1,5085059E-001	40	-1,2242337E-004
2	0	0	1	0	7,507265615457947E+004	1,0269660E+000	1,0263076E+000	-1,077285787066590E-001	1,000000000000000E+000	-1,6682976E-001	40	-1,1056266E-004
2	0	0	1	0	7,521385052121303E+004	1,0295650E+000	1,0289104E+000	-8,164916668753563E-002	1,000000000000000E+000	-1,8074863E-001	40	-8,4009676E-005
2	0	0	1	0	7,535879268691503E+004	1,0875418E+000	1,0868907E+000	-5,945275481832901E-002	1,000000000000000E+000	-1,9080609E-001	40	-6,4618645E-005
2	0	0	1	0	7,550373465260488E+004	1,1455187E+000	1,1449065E+000	-4,545088787347912E-002	1,000000000000000E+000	-1,9834228E-001	41	-5,2037019E-005
2	0	0	1	0	7,564867681833613E+004	1,2034955E+000	1,2028596E+000	-3,517265470932784E-002	1,000000000000000E+000	-2,0414166E-001	41	-4,2307765E-005
2	0	0	1	0	7,579361888407823E+004	1,2614723E+000	1,2608120E+000	-2,696344137865997E-002	1,000000000000000E+000	-2,0861363E-001	41	-3,3995831E-005
2	0	0	1	0	7,593856094977271E+004	1,3194491E+000	1,3187735E+000	-1,992888107427920E-002	1,000000000000000E+000	-2,1199067E-001	41	-2,6281681E-005
2	0	0	1	0	7,608350291546318E+004	1,3774259E+000	1,3767686E+000	-1,343288589516839E-002	1,000000000000000E+000	-2,1439646E-001	41	-1,8493974E-005
2	0	0	1	0	7,622844508120009E+004	1,4354026E+000	1,4347166E+000	-6,639313463852520E-003	1,000000000000000E+000	-2,1584909E-001	41	-9,5255327E-006
2	1	0	1	0	7,637338724693912E+004	1,4933796E+000	1,4927181E+000	1,432907774511440E-003	1,000000000000000E+000	-2,1623741E-001	42	2,1389274E-006
2	1	0	1	0	7,651832941263053E+004	1,5513563E+000	1,5506753E+000	1,325747659740097E-002	1,000000000000000E+000	-2,1524316E-001	41	2,0558042E-005
2	1	0	1	0	7,666327157832263E+004	1,6093332E+000	1,6086080E+000	4,320527259262634E-002	1,000000000000000E+000	-2,1163282E-001	41	6,9500347E-005
2	1	0	1	0	7,680821374406433E+004	1,6673100E+000	1,6665437E+000	9,363866592554307E-002	1,000000000000000E+000	-2,0167512E-001	41	1,5605293E-004
2	1	0	1	0	7,695315590979846E+004	1,7252867E+000	1,7246103E+000	1,351695762966698E-001	1,000000000000000E+000	-1,8491918E-001	40	2,3311484E-004
2	1	0	1	0	7,709809787548799E+004	1,7832637E+000	1,7825766E+000	1,618119137575711E-001	1,000000000000000E+000	-1,6319551E-001	40	2,8844213E-004
2	1	0	1	0	7,724304004118708E+004	1,8412405E+000	1,8405392E+000	1,737348834904071E-001	1,000000000000000E+000	-1,3869704E-001	40	3,1976588E-004
2	1	0	1	0	7,738798210692825E+004	1,8992172E+000	1,8985424E+000	1,708592959477184E-001	1,000000000000000E+000	-1,1351872E-001	40	3,2438361E-004
2	1	0	1	0	7,753292417265638E+004	1,9571939E+000	1,9565473E+000	1,519338014491809E-001	1,000000000000000E+000	-8,9933738E-002	40	2,9726565E-004
2	1	0	1	0	7,767786633834522E+004	2,0151708E+000	2,0145316E+000	1,202446061243710E-001	1,000000000000000E+000	-7,0074603E-002	40	2,4223657E-004
2	1	0	1	0	7,782280850405106E+004	2,0731473E+000	2,0724943E+000	8,442819644992472E-002	1,000000000000000E+000	-5,5296034E-002	40	1,7497696E-004
2	1	0	1	0	7,796775096979202E+004	2,1311243E+000	2,1304972E+000	6,096925094967265E-002	1,000000000000000E+000	-4,4911638E-002	40	1,2989482E-004
2	1	0	1	0	7,811294283545413E+004	2,1892011E+000	2,1885204E+000	4,696238372278336E-002	1,000000000000000E+000	-3,7161503E-002	41	1,0277813E-004
2	1	0	1	0	7,825788560114522E+004	2,2471778E+000	2,2464724E+000	3,861912759364949E-002	1,000000000000000E+000	-3,0997748E-002	41	8,6756801E-005
2	1	0	1	0	7,840282776685499E+004	2,3051546E+000	2,3045182E+000	3,327933491934676E-002	1,000000000000000E+000	-2,5802262E-002	41	7,6692835E-005
2	1	0	1	0	7,854777023259550E+004	2,3631315E+000	2,3624778E+000	2,961885124742780E-002	1,000000000000000E+000	-2,1248413E-002	41	6,9973881E-005
2	1	0	1	0	7,869271229831269E+004	2,4211087E+000	2,4204419E+000	2,728916760498895E-002	1,000000000000000E+000	-1,7130898E-002	41	6,6051842E-005
2	1	0	1	0	7,883765476400335E+004	2,4790852E+000	2,4784558E+000	2,521620818067127E-002	1,000000000000000E+000	-1,3310968E-002	41	6,2497260E-005
2	1	0	1	0	7,898259722971823E+004	2,5370619E+000	2,5364685E+000	2,301913386491850E-002	1,000000000000000E+000	-9,8082004E-003	41	5,8387308E-005
2	1	0	1	0	7,912753929545826E+004	2,5950389E+000	2,5944331E+000	2,084112537827029E-002	1,000000000000000E+000	-6,6230297E-003	41	5,4070904E-005
2	1	0	1	0	7,927248176117009E+004	2,6530154E+000	2,6524558E+000	1,919956087361052E-002	1,000000000000000E+000	-3,7102378E-003	41	5,0925988E-005
2	1	0	1	0	7,941742422686215E+004	2,7109923E+000	2,7104092E+000	1,758584129599416E-002	1,000000000000000E+000	-1,0365635E-003	41	4,7664824E-005
2	1	0	1	0	7,956236669258052E+004	2,7689691E+000	2,7684112E+000	1,643780587073418E-002	1,000000000000000E+000	1,4329538E-003	41	4,5506604E-005
2	1	0	1	0	7,970730845832173E+004	2,8269460E+000	2,8263791E+000	1,603469439361675E-002	1,000000000000000E+000	3,7871099E-003	41	4,5320125E-005
2	1	0	1	0	7,985225092402904E+004	2,8849230E+000	2,8843715E+000	1,578096623298519E-002	1,000000000000000E+000	6,1037568E-003	41	4,5518169E-005
2	1	0	1	0	7,999719328971836E+004	2,9428999E+000	2,9423285E+000	1,505399341226341E-002	1,000000000000000E+000	8,3501721E-003	41	4,4293793E-005
2	1	0	1	1	8,014001135595026E+004	3,0000279E+000	2,9994309E+000	1,478471643983933E-002	1,000000000000000E+000	1,0484010E-002	41	4,4345736E-005
2	1	0	1	1	8,028382872195781E+004	2,9424999E+000	2,9419549E+000	6,170252808036094E-003	1,000000000000000E+000	1,1729666E-002	41	1,8152605E-005
2	1	0	1	1	8,042877108764881E+004	2,8845232E+000	2,8839293E+000	3,683760679282881E-003	1,000000000000000E+000	1,2416555E-002	42	1,0623705E-005
2	1	0	1	1	8,057371265334287E+004	2,8265464E+000	2,8259881E+000	2,284406125118980E-003	1,000000000000000E+000	1,2831348E-002	42	6,4557044E-006
2	1	0	1	1	8,071865471908194E+004	2,7685695E+000	2,7680132E+000	1,467803459254641E-003	1,000000000000000E+000	1,3090313E-002	42	4,0628993E-006
2	1	0	1	1	8,086359658481786E+004	2,7105925E+000	2,7100260E+000	9,141811713788144E-004	1,000000000000000E+000	1,3254243E-002	42	2,4774547E-006
2	1	0	1	1	8,100853845050634E+004	2,6526158E+000	2,6520443E+000	3,027032240515417E-004	1,000000000000000E+000	1,3338399E-002	43	8,0278238E-007
2	0	0	1	1	8,115348031620542E+004	2,5946391E+000	2,5941184E+000	-5,076003784002100E-004	1,000000000000000E+000	1,3311500E-002	43	-1,3167754E-006
2	0	0	1	1	8,129842208194672E+004	2,5366621E+000	2,5361309E+000	-9,590404296908051E-004	1,000000000000000E+000	1,3199247E-002	42	-2,4322521E-006
2	0	0	1	1	8,144336424767505E+004	2,4786854E+000	2,4781482E+000	-1,489920745615743E-003	1,000000000000000E+000	1,3013569E-002	42	-3,6922445E-006
2	0	0	1	1	8,158830581336480E+004	2,4207084E+000	2,4201903E+000	-2,056542300565652E-003	1,000000000000000E+000	1,2747662E-002	42	-4,9772239E-006
2	0	0	1	1	8,173324777906947E+004	2,3627317E+000	2,3621986E+000	-2,397763726022843E-003	1,000000000000000E+000	1,2414725E-002	42	-5,6639942E-006
2	0	0	1	1	8,187818974481174E+004	2,3047550E+000	2,3042140E+000	-2,788817462640321E-003	1,000000000000000E+000	1,2032583E-002	42	-6,4260321E-006
2	0	0	1	1	8,202313161053276E+004	2,2467782E+000	2,2462225E+000	-3,312133106959589E-003	1,000000000000000E+000	1,1584417E-002	42	-7,4397881E-006
2	0	0	1	1	8,216807347622234E+004	2,1888013E+000	2,1882770E+000	-4,021040735183105E-003	1,000000000000000E+000	1,1047142E-002	42	-8,7991511E-006
2	0	0	1	1	8,231301554193420E+004	2,1308246E+000	2,1303203E+000	-4,973372469271646E-003	1,000000000000000E+000	1,0390298E-002	42	-1,0594877E-005
2	0	0	1	1	8,245795740767475E+004	2,0728476E+000	2,0723362E+000	-6,202433829272457E-003	1,000000000000000E+000	9,5760450E-003	42	-1,2853528E-005
2	0	0	1	1	8,260289927339053E+004	2,0148709E+000	2,0143876E+000	-7,787660358833021E-003	1,000000000000000E+000	8,5578421E-003	42	-1,5687367E-005
2	0	0	1	1	8,274784133908036E+004	1,9568939E+000	1,9564428E+000	-9,530419689803060E-003	1,000000000000000E+000	7,2952742E-003	42	-1,8645722E-005
2	0	0	1	1	8,289278320479859E+004	1,8989174E+000	1,8983513E+000	-1,165623164398344E-002	1,000000000000000E+000	5,7565621E-003	41	-2,2127622E-005
2	0	0	1	1	8,303772507053788E+004	1,8409406E+000	1,8403596E+000	-1,433078864402332E-002	1,000000000000000E+000	3,8703575E-003	41	-2,6373804E-005
2	0	0	1	1	8,318266683624918E+004	1,7829636E+000	1,7823818E+000	-1,803632751619189E-002	1,000000000000000E+000	1,5328489E-003	41	-3,2147622E-005
2	0	0	1	1	8,332760880193987E+004	1,7249870E+000	1,7244278E+000	-2,290844182309427E-002	1,000000000000000E+000	-1,4361101E-003	41	-3,9503953E-005
2	0	0	0	1	8,333445760033233E+004	1,7222385E+000	1,7217271E+000	-2,316205217917958E-002	1,000000000000000E+000	-1,5942591E-003	41	-3,9878734E-005