File: Dati/210416/CV_LTO-CB_05_CV_C05.mpt
EC-Lab ASCII FILE
Nb header lines : 57

Cyclic Voltammetry

Run on channel : 5 (SN 6809)
User : Seelab
Electrode connection : standard
Ewe ctrl range : min = 0,00 V, max = 5,00 V
Ewe,I filtering : 50 kHz
Safety Limits :
	Do not start on E overload
Channel : Grounded
Acquisition started on : 04/16/2021 18:38:45
Saved on :
	File : CV_LTO-CB_05_CV_C05.mpr
	Directory : C:\Users\labsuperfici\Desktop\Biologic\Users\Prisca Viviani\210416\
	Host : 10.78.33.0
Device : VSP-300 (SN 0638)
Address : USB
EC-Lab for windows v11.31 (software)
Internet server v11.30 (firmware)
Command interpretor v11.31 (firmware)
Electrode material :
Initial state :
Electrolyte :
Comments :
Cable : standard
Reference electrode : SCE Saturated Calomel Electrode (0,241 V)
Electrode surface area : 0,001 cm²
Characteristic mass : 0,001 g
Equivalent Weight : 0,000 g/eq.
Density : 0,000 g/cm3
Cycle Definition : Charge/Discharge alternance
Ei (V)              0,000
vs.                 Eoc
dE/dt               0,400
dE/dt unit          mV/s
E1 (V)              1,000
vs.                 Ref
Step percent        50
N                   10
E range min (V)     0,000
E range max (V)     5,000
I Range             Auto
I Range min         Unset
I Range max         Unset
I Range init        Unset
Bandwidth           8
E2 (V)              3,000
vs.                 Ref
nc cycles           1
Reverse Scan        1
Ef (V)              0,000
vs.                 Eoc

mode	ox/red	error	control changes	counter inc.	time/s	control/V	Ewe/V	<I>/mA	cycle number	(Q-Qo)/C	I Range	P/W
2	0	0	1	0	1,478715323369295E+005	2,0588205E+000	2,0594685E+000	-8,206616155803204E-003	1,000000000000000E+000	0,0000000E+000	42	-1,6901267E-005
2	0	0	1	0	1,481602020820956E+005	1,9433522E+000	1,9440470E+000	-1,583449058424991E-002	1,000000000000000E+000	-3,4680583E-003	41	-3,0782994E-005
2	0	0	1	0	1,484499963274379E+005	1,8274342E+000	1,8281547E+000	-2,659005615095827E-002	1,000000000000000E+000	-9,5183710E-003	41	-4,8610735E-005
2	0	0	1	0	1,487397903727791E+005	1,7115164E+000	1,7122461E+000	-4,355372817389364E-002	1,000000000000000E+000	-1,9516230E-002	41	-7,4574702E-005
2	0	0	1	0	1,490295845181197E+005	1,5955987E+000	1,5962772E+000	-6,920570266195947E-002	1,000000000000000E+000	-3,5619169E-002	41	-1,1047149E-004
2	0	0	1	0	1,493193784634611E+005	1,4796813E+000	1,4803867E+000	-1,161694627803018E-001	1,000000000000000E+000	-6,1672941E-002	40	-1,7197573E-004
2	0	0	1	0	1,496091727088037E+005	1,3637633E+000	1,3644811E+000	-1,717775459500603E-001	1,000000000000000E+000	-1,0427174E-001	40	-2,3438722E-004
2	0	0	1	0	1,498989665541460E+005	1,2478458E+000	1,2485493E+000	-1,826648720251936E-001	1,000000000000000E+000	-1,5667258E-001	40	-2,2806610E-004
2	0	0	1	0	1,501887607994885E+005	1,1319281E+000	1,1326344E+000	-1,619830305153698E-001	1,000000000000000E+000	-2,0708421E-001	40	-1,8346755E-004
2	0	0	1	0	1,504785547448294E+005	1,0160103E+000	1,0167313E+000	-1,360220223733117E-001	1,000000000000000E+000	-2,5017279E-001	40	-1,3829784E-004
2	0	0	1	0	1,507648521896233E+005	1,0984519E+000	1,0991557E+000	-6,795922622233597E-002	1,000000000000000E+000	-2,7823731E-001	40	-7,4697768E-005
2	0	0	1	0	1,510546467349646E+005	1,2143695E+000	1,2150383E+000	-3,940487786695712E-002	1,000000000000000E+000	-2,9329994E-001	41	-4,7878435E-005
2	0	0	1	0	1,513444411803058E+005	1,3302872E+000	1,3309958E+000	-2,229660732857741E-002	1,000000000000000E+000	-3,0213299E-001	41	-2,9676690E-005
2	0	0	1	0	1,516342356256485E+005	1,4462049E+000	1,4468737E+000	-4,059068892665160E-003	1,000000000000000E+000	-3,0605093E-001	42	-5,8729597E-006
2	1	0	1	0	1,519240301709905E+005	1,5621226E+000	1,5628072E+000	2,268893773954050E-002	1,000000000000000E+000	-3,0367067E-001	41	3,5458434E-005
2	1	0	1	0	1,522138249163332E+005	1,6780401E+000	1,6787541E+000	1,120294787824173E-001	1,000000000000000E+000	-2,8703246E-001	40	1,8806994E-004
2	1	0	1	0	1,525036191616748E+005	1,7939578E+000	1,7946546E+000	2,581488374711576E-001	1,000000000000000E+000	-2,3355199E-001	40	4,6328799E-004
2	1	0	1	0	1,527934138070159E+005	1,9098756E+000	1,9105958E+000	2,907417911080454E-001	1,000000000000000E+000	-1,4842536E-001	40	5,5549003E-004
2	1	0	1	0	1,530832082523564E+005	2,0257931E+000	2,0264866E+000	1,643465459854837E-001	1,000000000000000E+000	-8,1558801E-002	40	3,3304607E-004
2	1	0	1	0	1,533730035976977E+005	2,1417110E+000	2,1423631E+000	7,674968970150373E-002	1,000000000000000E+000	-4,8407108E-002	40	1,6442570E-004
2	1	0	1	0	1,536630483430799E+005	2,2577286E+000	2,2583902E+000	4,340096573744682E-002	1,000000000000000E+000	-3,1720150E-002	41	9,8016317E-005
2	1	0	1	0	1,539528429884221E+005	2,3736460E+000	2,3743308E+000	2,919353969574556E-002	1,000000000000000E+000	-2,1429202E-002	41	6,9315116E-005
2	1	0	1	0	1,542426380337644E+005	2,4895639E+000	2,4902318E+000	2,206355516459859E-002	1,000000000000000E+000	-1,4070556E-002	41	5,4943364E-005
2	1	0	1	0	1,545324329791069E+005	2,6054816E+000	2,6061277E+000	1,727052707483434E-002	1,000000000000000E+000	-8,4032426E-003	41	4,5009201E-005
2	1	0	1	0	1,548222282244479E+005	2,7213991E+000	2,7220623E+000	1,419063453455111E-002	1,000000000000000E+000	-3,8341051E-003	41	3,8627793E-005
2	1	0	1	0	1,551120228697890E+005	2,8373170E+000	2,8379941E+000	1,381325572832656E-002	1,000000000000000E+000	1,5359967E-004	41	3,9201939E-005
2	1	0	1	0	1,554018179151299E+005	2,9532344E+000	2,9539096E+000	1,240573920260338E-002	1,000000000000000E+000	4,0026391E-003	41	3,6645433E-005
2	1	0	1	1	1,556873650598079E+005	2,9324493E+000	2,9331257E+000	4,411299726158785E-003	1,000000000000000E+000	6,5431222E-003	42	1,2938896E-005
2	1	0	1	1	1,559771591051491E+005	2,8165317E+000	2,8171899E+000	1,676104354183005E-003	1,000000000000000E+000	7,3376689E-003	42	4,7219041E-006
2	1	0	1	1	1,562669531504916E+005	2,7006137E+000	2,7012904E+000	5,246613062721249E-004	1,000000000000000E+000	7,6235798E-003	43	1,4172625E-006
2	0	0	1	1	1,565567469958342E+005	2,5846965E+000	2,5853658E+000	-6,508845393019842E-004	1,000000000000000E+000	7,5725317E-003	43	-1,6827746E-006
2	0	0	1	1	1,568465413411758E+005	2,4687788E+000	2,4694264E+000	-1,559107144735485E-003	1,000000000000000E+000	7,2502000E-003	42	-3,8501003E-006
2	0	0	1	1	1,571363354865173E+005	2,3528609E+000	2,3535414E+000	-2,649079590249702E-003	1,000000000000000E+000	6,6269753E-003	42	-6,2347185E-006
2	0	0	1	1	1,574261295318571E+005	2,2369432E+000	2,2375882E+000	-4,418707954589835E-003	1,000000000000000E+000	5,6028911E-003	42	-9,8872488E-006
2	0	0	1	1	1,577159233771993E+005	2,1210256E+000	2,1216550E+000	-7,510139381582279E-003	1,000000000000000E+000	3,8955563E-003	42	-1,5933925E-005
2	0	0	1	1	1,580029696221118E+005	2,0062070E+000	2,0068636E+000	-1,269817559588164E-002	2,000000000000000E+000	1,0383829E-003	41	-2,5483507E-005
2	0	0	1	1	1,582927637674540E+005	1,8902894E+000	1,8909615E+000	-2,123837419699881E-002	2,000000000000000E+000	-3,7925388E-003	41	-4,0160947E-005
2	0	0	1	1	1,585825578127964E+005	1,7743717E+000	1,7750523E+000	-3,533989696137529E-002	2,000000000000000E+000	-1,1844551E-002	41	-6,2730163E-005
2	0	0	1	1	1,588723519581375E+005	1,6584541E+000	1,6591040E+000	-5,780384603627975E-002	2,000000000000000E+000	-2,5142768E-002	41	-9,5902593E-005
2	0	0	1	1	1,591621462034779E+005	1,5425364E+000	1,5431753E+000	-9,547179720043064E-002	2,000000000000000E+000	-4,6737842E-002	41	-1,4732972E-004
2	0	0	1	1	1,594519402488195E+005	1,4266189E+000	1,4272969E+000	-1,626530900852469E-001	2,000000000000000E+000	-8,4014192E-002	40	-2,3215424E-004
2	0	0	1	1	1,597417341941617E+005	1,3107009E+000	1,3113794E+000	-1,884795986780572E-001	2,000000000000000E+000	-1,3640010E-001	40	-2,4716827E-004
2	0	0	1	1	1,600315283395043E+005	1,1947834E+000	1,1955055E+000	-1,716990603847547E-001	2,000000000000000E+000	-1,8915640E-001	40	-2,0526718E-004
2	0	0	1	1	1,603213223848464E+005	1,0788656E+000	1,0795822E+000	-1,447338764809155E-001	2,000000000000000E+000	-2,3503025E-001	40	-1,5625212E-004
2	0	0	1	1	1,606073694296018E+005	1,0354965E+000	1,0361996E+000	-9,319608185479655E-002	2,000000000000000E+000	-2,7151483E-001	40	-9,6569740E-005
2	0	0	1	1	1,608971639749426E+005	1,1514140E+000	1,1521317E+000	-4,939341877702666E-002	2,000000000000000E+000	-2,9115868E-001	40	-5,6907724E-005
2	0	0	1	1	1,611869585202835E+005	1,2673317E+000	1,2680205E+000	-2,858547790737120E-002	2,000000000000000E+000	-3,0217656E-001	41	-3,6246973E-005
2	0	0	1	1	1,614767529656251E+005	1,3832496E+000	1,3839481E+000	-1,266411540240669E-002	2,000000000000000E+000	-3,0816838E-001	41	-1,7526478E-005
2	1	0	1	1	1,617665474109674E+005	1,4991672E+000	1,4998907E+000	8,131087516972973E-003	2,000000000000000E+000	-3,0900830E-001	42	1,2195743E-005
2	1	0	1	1	1,620563419563096E+005	1,6150849E+000	1,6157640E+000	5,124373005242278E-002	2,000000000000000E+000	-3,0182439E-001	41	8,2797778E-005
2	1	0	1	1	1,623461366016525E+005	1,7310026E+000	1,7317089E+000	1,974901794519970E-001	2,000000000000000E+000	-2,6743722E-001	40	3,4199550E-004
2	1	0	1	1	1,626359310469935E+005	1,8469203E+000	1,8475916E+000	3,237655965892090E-001	2,000000000000000E+000	-1,8778448E-001	40	5,9818663E-004
2	1	0	1	1	1,629257255923348E+005	1,9628382E+000	1,9635556E+000	2,259437514860072E-001	2,000000000000000E+000	-1,0429583E-001	40	4,4365312E-004
2	1	0	1	1	1,632155207376755E+005	2,0787556E+000	2,0794415E+000	1,075955827849366E-001	2,000000000000000E+000	-5,7616789E-002	40	2,2373872E-004
2	1	0	1	1	1,635053153830175E+005	2,1946731E+000	2,1953526E+000	5,524442067291946E-002	2,000000000000000E+000	-3,5246614E-002	40	1,2128098E-004
2	1	0	1	1	1,637953601283991E+005	2,3106906E+000	2,3113656E+000	3,453510527248627E-002	2,000000000000000E+000	-2,2611631E-002	41	7,9823258E-005
2	1	0	1	1	1,640851550737410E+005	2,4266088E+000	2,4272807E+000	2,477912840920293E-002	2,000000000000000E+000	-1,4164797E-002	41	6,0145900E-005
2	1	0	1	1	1,643749504190835E+005	2,5425265E+000	2,5432222E+000	1,906565689016504E-002	2,000000000000000E+000	-7,8277923E-003	41	4,8488200E-005
2	1	0	1	1	1,646647450644262E+005	2,6584439E+000	2,6590993E+000	1,533963551275135E-002	2,000000000000000E+000	-2,8668924E-003	41	4,0789615E-005
2	1	0	1	1	1,649545397097669E+005	2,7743616E+000	2,7750413E+000	1,306548624319672E-002	2,000000000000000E+000	1,2001051E-003	41	3,6257265E-005
2	1	0	1	1	1,652443347551082E+005	2,8902793E+000	2,8909421E+000	1,288523497093741E-002	2,000000000000000E+000	5,0409916E-003	41	3,7250469E-005
2	1	0	1	0	1,655298823997853E+005	2,9954047E+000	2,9960909E+000	9,059987633001781E-003	2,000000000000000E+000	8,5123051E-003	41	2,7144546E-005
2	1	0	1	0	1,658196766451262E+005	2,8794868E+000	2,8801751E+000	2,625343228552582E-003	2,000000000000000E+000	9,8678386E-003	42	7,5614485E-006
2	1	0	1	0	1,661094707904684E+005	2,7635694E+000	2,7642317E+000	9,620432952114645E-004	2,000000000000000E+000	1,0326094E-002	42	2,6593107E-006
2	0	0	1	0	1,663992651358105E+005	2,6476514E+000	2,6483302E+000	-9,030186901823312E-005	2,000000000000000E+000	1,0441408E-002	43	-2,3914916E-007
2	0	0	1	0	1,666890589811536E+005	2,5317340E+000	2,5324016E+000	-1,031060931587840E-003	2,000000000000000E+000	1,0228467E-002	42	-2,6110604E-006
2	0	0	1	0	1,669788530264948E+005	2,4158161E+000	2,4164834E+000	-2,080798658247496E-003	2,000000000000000E+000	9,7536091E-003	42	-5,0282156E-006
2	0	0	1	0	1,672686470718356E+005	2,2998986E+000	2,3005550E+000	-3,407534033049352E-003	2,000000000000000E+000	8,9526400E-003	42	-7,8392195E-006
2	0	0	1	0	1,675584412171762E+005	2,1839807E+000	2,1846361E+000	-5,715968015991217E-003	2,000000000000000E+000	7,6372838E-003	42	-1,2487310E-005
2	0	0	1	0	1,678482355625191E+005	2,0680630E+000	2,0687413E+000	-9,765748128484561E-003	2,000000000000000E+000	5,4158196E-003	42	-2,0202806E-005
2	0	0	1	0	1,678712166661150E+005	2,0588205E+000	2,0595219E+000	-1,037586144405245E-002	2,000000000000000E+000	5,1843328E-003	41	-2,1369315E-005