File: Dati/210416/CV_LTO-CB_04_CV_C05.mpt
EC-Lab ASCII FILE
Nb header lines : 57

Cyclic Voltammetry

Run on channel : 5 (SN 6809)
User : Seelab
Electrode connection : standard
Ewe ctrl range : min = 0,00 V, max = 5,00 V
Ewe,I filtering : 50 kHz
Safety Limits :
	Do not start on E overload
Channel : Grounded
Acquisition started on : 04/16/2021 18:38:45
Saved on :
	File : CV_LTO-CB_04_CV_C05.mpr
	Directory : C:\Users\labsuperfici\Desktop\Biologic\Users\Prisca Viviani\210416\
	Host : 10.78.33.0
Device : VSP-300 (SN 0638)
Address : USB
EC-Lab for windows v11.31 (software)
Internet server v11.30 (firmware)
Command interpretor v11.31 (firmware)
Electrode material :
Initial state :
Electrolyte :
Comments :
Cable : standard
Reference electrode : SCE Saturated Calomel Electrode (0,241 V)
Electrode surface area : 0,001 cm²
Characteristic mass : 0,001 g
Equivalent Weight : 0,000 g/eq.
Density : 0,000 g/cm3
Cycle Definition : Charge/Discharge alternance
Ei (V)              0,000
vs.                 Eoc
dE/dt               0,300
dE/dt unit          mV/s
E1 (V)              1,000
vs.                 Ref
Step percent        50
N                   10
E range min (V)     0,000
E range max (V)     5,000
I Range             Auto
I Range min         Unset
I Range max         Unset
I Range init        Unset
Bandwidth           8
E2 (V)              3,000
vs.                 Ref
nc cycles           1
Reverse Scan        1
Ef (V)              0,000
vs.                 Eoc

mode	ox/red	error	control changes	counter inc.	time/s	control/V	Ewe/V	<I>/mA	cycle number	(Q-Qo)/C	I Range	P/W
2	0	0	0	0	1,212049302423876E+005	2,0588205E+000	2,0595295E+000	-5,709758028388023E-003	1,000000000000000E+000	0,0000000E+000	42	-1,1759415E-005
2	0	0	1	0	1,215898234513463E+005	1,9433517E+000	1,9441198E+000	-1,204457566393419E-002	1,000000000000000E+000	-3,4639954E-003	41	-2,3416098E-005
2	0	0	1	0	1,219762158599775E+005	1,8274342E+000	1,8281928E+000	-2,043322863089832E-002	1,000000000000000E+000	-9,6467193E-003	41	-3,7355883E-005
2	0	0	1	0	1,223626081685585E+005	1,7115164E+000	1,7123005E+000	-3,322957835528129E-002	1,000000000000000E+000	-1,9847296E-002	41	-5,6899025E-005
2	0	0	1	0	1,227490005771457E+005	1,5955987E+000	1,5963709E+000	-5,229264302306280E-002	1,000000000000000E+000	-3,6134385E-002	41	-8,3478459E-005
2	0	0	1	0	1,231353929857779E+005	1,4796810E+000	1,4804239E+000	-8,803878423300415E-002	1,000000000000000E+000	-6,2356882E-002	41	-1,3033472E-004
2	0	0	1	0	1,235217852943728E+005	1,3637635E+000	1,3645161E+000	-1,420682663835100E-001	1,000000000000000E+000	-1,0730164E-001	40	-1,9385444E-004
2	0	0	1	0	1,239081775029465E+005	1,2478456E+000	1,2486271E+000	-1,536361434718627E-001	1,000000000000000E+000	-1,6602501E-001	40	-1,9183425E-004
2	0	0	1	0	1,242945698115784E+005	1,1319281E+000	1,1327163E+000	-1,323287681587813E-001	1,000000000000000E+000	-2,2179893E-001	40	-1,4989096E-004
2	0	0	1	0	1,246809622201856E+005	1,0160103E+000	1,0167885E+000	-1,080163593961332E-001	1,000000000000000E+000	-2,6805279E-001	40	-1,0982979E-004
2	0	0	1	0	1,250626919298682E+005	1,0984519E+000	1,0992473E+000	-5,165937429405065E-002	1,000000000000000E+000	-2,9723954E-001	40	-5,6786430E-005
2	0	0	1	0	1,254490849384724E+005	1,2143694E+000	1,2151372E+000	-2,874219916556803E-002	1,000000000000000E+000	-3,1224135E-001	41	-3,4925717E-005
2	0	0	1	0	1,258354780471046E+005	1,3302872E+000	1,3310457E+000	-1,569288393248010E-002	1,000000000000000E+000	-3,2069764E-001	41	-2,0887946E-005
2	0	0	1	0	1,262218710556808E+005	1,4462049E+000	1,4469639E+000	-1,639516036384837E-003	1,000000000000000E+000	-3,2416233E-001	42	-2,3723205E-006
2	1	0	1	0	1,266082642642718E+005	1,5621226E+000	1,5628595E+000	1,905204726461467E-002	1,000000000000000E+000	-3,2112700E-001	41	2,9775674E-005
2	1	0	1	0	1,269946575729056E+005	1,6780403E+000	1,6788229E+000	8,702163438764135E-002	1,000000000000000E+000	-3,0318171E-001	41	1,4609391E-004
2	1	0	1	0	1,273810505814929E+005	1,7939577E+000	1,7947202E+000	1,806996821896396E-001	1,000000000000000E+000	-2,5107941E-001	40	3,2430535E-004
2	1	0	1	0	1,277674436900716E+005	1,9098758E+000	1,9106154E+000	2,204550166787462E-001	1,000000000000000E+000	-1,7029126E-001	40	4,2120475E-004
2	1	0	1	0	1,281538368987057E+005	2,0257931E+000	2,0265284E+000	1,493625232877229E-001	1,000000000000000E+000	-9,6070267E-002	40	3,0268737E-004
2	1	0	1	0	1,285402306073045E+005	2,1417108E+000	2,1424167E+000	6,938598087123338E-002	1,000000000000000E+000	-5,5562433E-002	40	1,4865368E-004
2	1	0	1	0	1,289266240158769E+005	2,2576287E+000	2,2583613E+000	3,718388750450563E-002	1,000000000000000E+000	-3,5962116E-002	41	8,3974657E-005
2	1	0	1	0	1,293130169245045E+005	2,3735464E+000	2,3742766E+000	2,413877761594635E-002	1,000000000000000E+000	-2,4423841E-002	41	5,7312136E-005
2	1	0	1	0	1,296994099331177E+005	2,4894640E+000	2,4901888E+000	1,788916084747678E-002	1,000000000000000E+000	-1,6413702E-002	41	4,4547389E-005
2	1	0	1	0	1,300858028416889E+005	2,6053817E+000	2,6060896E+000	1,376079720762496E-002	1,000000000000000E+000	-1,0331448E-002	41	3,5861871E-005
2	1	0	1	0	1,304721962503039E+005	2,7212996E+000	2,7220321E+000	1,127975688077462E-002	1,000000000000000E+000	-5,4986090E-003	41	3,0703861E-005
2	1	0	1	0	1,308585892589302E+005	2,8372171E+000	2,8379138E+000	1,127119201655002E-002	1,000000000000000E+000	-1,2636977E-003	41	3,1986670E-005
2	1	0	1	0	1,312449822355115E+005	2,9531348E+000	2,9538524E+000	1,014698371022836E-002	1,000000000000000E+000	2,9622614E-003	41	2,9972693E-005
2	1	0	1	1	1,316260448951330E+005	2,9324496E+000	2,9331448E+000	3,654541591897584E-003	1,000000000000000E+000	5,7664365E-003	42	1,0719300E-005
2	1	0	1	1	1,320124364555882E+005	2,8165319E+000	2,8172548E+000	1,383809621541688E-003	1,000000000000000E+000	6,6473805E-003	42	3,8985445E-006
2	1	0	1	1	1,323988280160432E+005	2,7006140E+000	2,7013502E+000	4,751684781756204E-004	1,000000000000000E+000	6,9814236E-003	43	1,2835965E-006
2	0	0	1	1	1,327878846769170E+005	2,5838969E+000	2,5846214E+000	-4,083143907858819E-004	1,000000000000000E+000	6,9603198E-003	43	-1,0553381E-006
2	0	0	1	1	1,331742765373727E+005	2,4679794E+000	2,4687021E+000	-1,172067931104887E-003	1,000000000000000E+000	6,6509293E-003	42	-2,8934865E-006
2	0	0	1	1	1,335606680978278E+005	2,3520617E+000	2,3527737E+000	-2,034727971107798E-003	1,000000000000000E+000	6,0231374E-003	42	-4,7872545E-006
2	0	0	1	1	1,339470596582834E+005	2,2361441E+000	2,2368777E+000	-3,381401785566335E-003	1,000000000000000E+000	4,9823234E-003	42	-7,5637822E-006
2	0	0	1	1	1,343334515187384E+005	2,1202261E+000	2,1209469E+000	-5,739494335400337E-003	1,000000000000000E+000	3,2477460E-003	42	-1,2173163E-005
2	0	0	1	1	1,347198434791936E+005	2,0043085E+000	2,0050459E+000	-9,685004834835156E-003	2,000000000000000E+000	3,1732061E-004	42	-1,9418880E-005
2	0	0	1	1	1,351062362396488E+005	1,8883910E+000	1,8891202E+000	-1,610495871184822E-002	2,000000000000000E+000	-4,5733019E-003	41	-3,0424204E-005
2	0	0	1	1	1,354926285001037E+005	1,7724731E+000	1,7732067E+000	-2,639401823645671E-002	2,000000000000000E+000	-1,2651424E-002	41	-4,6802052E-005
2	0	0	1	1	1,358790212605596E+005	1,6565554E+000	1,6572992E+000	-4,230398438840521E-002	2,000000000000000E+000	-2,5739875E-002	41	-7,0110356E-005
2	0	0	1	1	1,362654137210157E+005	1,5406381E+000	1,5413710E+000	-6,784391926721245E-002	2,000000000000000E+000	-4,6503864E-002	41	-1,0457265E-004
2	0	0	1	1	1,366518062814726E+005	1,4247202E+000	1,4254744E+000	-1,200203941919060E-001	2,000000000000000E+000	-8,1907012E-002	40	-1,7108599E-004
2	0	0	1	1	1,370381985419285E+005	1,3088025E+000	1,3095480E+000	-1,565827302402485E-001	2,000000000000000E+000	-1,3711821E-001	40	-2,0505261E-004
2	0	0	1	1	1,374245911023840E+005	1,1928849E+000	1,1936508E+000	-1,453213976120618E-001	2,000000000000000E+000	-1,9656909E-001	40	-1,7346301E-004
2	0	0	1	1	1,378109836628385E+005	1,0769669E+000	1,0777297E+000	-1,184775501469670E-001	2,000000000000000E+000	-2,4756181E-001	40	-1,2768677E-004
2	0	0	1	1	1,381927132225656E+005	1,0374951E+000	1,0382464E+000	-7,287563328105684E-002	2,000000000000000E+000	-2,8661072E-001	40	-7,5662865E-005
2	0	0	1	1	1,385791061830213E+005	1,1534129E+000	1,1541713E+000	-3,732740477623864E-002	2,000000000000000E+000	-3,0677444E-001	41	-4,3082222E-005
2	0	0	1	1	1,389654993434764E+005	1,2693305E+000	1,2700528E+000	-2,085847657862866E-002	2,000000000000000E+000	-3,1766701E-001	41	-2,6491367E-005
2	0	0	1	1	1,393518926039315E+005	1,3852482E+000	1,3859812E+000	-8,576681841634053E-003	2,000000000000000E+000	-3,2337934E-001	41	-1,1887119E-005
2	1	0	1	1	1,397382859643865E+005	1,5011660E+000	1,5019116E+000	7,742028690110220E-003	2,000000000000000E+000	-3,2372656E-001	42	1,1627843E-005
2	1	0	1	1	1,401246790248435E+005	1,6170834E+000	1,6178228E+000	4,311727030763202E-002	2,000000000000000E+000	-3,1560087E-001	41	6,9756104E-005
2	1	0	1	1	1,405110725853001E+005	1,7330014E+000	1,7337147E+000	1,474929277176971E-001	2,000000000000000E+000	-2,7968353E-001	40	2,5571065E-004
2	1	0	1	1	1,408974659457558E+005	1,8489190E+000	1,8496290E+000	2,415061377357581E-001	2,000000000000000E+000	-2,0203152E-001	40	4,4669677E-004
2	1	0	1	1	1,412838592062109E+005	1,9648367E+000	1,9655695E+000	1,901886189439825E-001	2,000000000000000E+000	-1,1333795E-001	40	3,7382895E-004
2	1	0	1	1	1,416702526666657E+005	2,0807540E+000	2,0814800E+000	8,718163476598959E-002	2,000000000000000E+000	-6,1344184E-002	40	1,8146684E-004
2	1	0	1	1	1,420569796271757E+005	2,1967719E+000	2,1974885E+000	4,336393152034923E-002	2,000000000000000E+000	-3,7538137E-002	41	9,5291740E-005
2	1	0	1	1	1,424433727876311E+005	2,3126895E+000	2,3134048E+000	2,702193911739117E-002	2,000000000000000E+000	-2,4353016E-002	41	6,2512685E-005
2	1	0	1	1	1,428297658480860E+005	2,4286070E+000	2,4293318E+000	1,929397709377532E-002	2,000000000000000E+000	-1,5563925E-002	41	4,6871472E-005
2	1	0	1	1	1,432161590085409E+005	2,5445249E+000	2,5452280E+000	1,483841092893018E-002	2,000000000000000E+000	-8,9889811E-003	41	3,7767139E-005
2	1	0	1	1	1,436025524689965E+005	2,6604426E+000	2,6611257E+000	1,191582693768092E-002	2,000000000000000E+000	-3,8558608E-003	41	3,1709515E-005
2	1	0	1	1	1,439889456294533E+005	2,7763608E+000	2,7770519E+000	1,028031759183896E-002	2,000000000000000E+000	3,7329557E-004	41	2,8548975E-005
2	1	0	1	1	1,443753386899102E+005	2,8922784E+000	2,8929732E+000	1,042684694139301E-002	2,000000000000000E+000	4,4816588E-003	41	3,0164589E-005
2	1	0	1	0	1,447560690494785E+005	2,9934063E+000	2,9941223E+000	7,194543546769877E-003	2,000000000000000E+000	8,2085300E-003	41	2,1541344E-005
2	1	0	1	0	1,451424610099345E+005	2,8774891E+000	2,8781798E+000	2,174264822216672E-003	2,000000000000000E+000	9,6884882E-003	42	6,2579252E-006
2	1	0	1	0	1,455288524703900E+005	2,7615707E+000	2,7622478E+000	8,489227412423906E-004	2,000000000000000E+000	1,0208879E-002	42	2,3449350E-006
2	0	0	1	0	1,459159104309487E+005	2,6454532E+000	2,6461375E+000	-3,764282464604790E-005	2,000000000000000E+000	1,0356810E-002	43	-9,9608087E-008
2	0	0	1	0	1,463023023914043E+005	2,5295355E+000	2,5301974E+000	-7,651777900041321E-004	2,000000000000000E+000	1,0165066E-002	43	-1,9360509E-006
2	0	0	1	0	1,466886938518602E+005	2,4136183E+000	2,4143116E+000	-1,587913468333053E-003	2,000000000000000E+000	9,6919462E-003	42	-3,8337180E-006
2	0	0	1	0	1,470750854123160E+005	2,2977002E+000	2,2983868E+000	-2,622378853661553E-003	2,000000000000000E+000	8,8783428E-003	42	-6,0272409E-006
2	0	0	1	0	1,474614773727725E+005	2,1817827E+000	2,1824849E+000	-4,400788416522555E-003	2,000000000000000E+000	7,5357463E-003	42	-9,6046542E-006
2	0	0	1	0	1,478478696332285E+005	2,0658646E+000	2,0665710E+000	-7,552159474690720E-003	2,000000000000000E+000	5,2588214E-003	42	-1,5607075E-005
2	0	0	1	0	1,478711827368760E+005	2,0588205E+000	2,0594761E+000	-7,910443610093382E-003	2,000000000000000E+000	5,0786505E-003	42	-1,6291369E-005