File: Dati/210416/CV_LTO-CB_10_CV_C05.mpt
EC-Lab ASCII FILE
Nb header lines : 57

Cyclic Voltammetry

Run on channel : 5 (SN 6809)
User : Seelab
Electrode connection : standard
Ewe ctrl range : min = 0,00 V, max = 5,00 V
Ewe,I filtering : 50 kHz
Safety Limits :
	Do not start on E overload
Channel : Grounded
Acquisition started on : 04/16/2021 18:38:45
Saved on :
	File : CV_LTO-CB_10_CV_C05.mpr
	Directory : C:\Users\labsuperfici\Desktop\Biologic\Users\Prisca Viviani\210416\
	Host : 10.78.33.0
Device : VSP-300 (SN 0638)
Address : USB
EC-Lab for windows v11.31 (software)
Internet server v11.30 (firmware)
Command interpretor v11.31 (firmware)
Electrode material :
Initial state :
Electrolyte :
Comments :
Cable : standard
Reference electrode : SCE Saturated Calomel Electrode (0,241 V)
Electrode surface area : 0,001 cm²
Characteristic mass : 0,001 g
Equivalent Weight : 0,000 g/eq.
Density : 0,000 g/cm3
Cycle Definition : Charge/Discharge alternance
Ei (V)              0,000
vs.                 Eoc
dE/dt               0,900
dE/dt unit          mV/s
E1 (V)              1,000
vs.                 Ref
Step percent        50
N                   10
E range min (V)     0,000
E range max (V)     5,000
I Range             Auto
I Range min         Unset
I Range max         Unset
I Range init        Unset
Bandwidth           8
E2 (V)              3,000
vs.                 Ref
nc cycles           1
Reverse Scan        1
Ef (V)              0,000
vs.                 Eoc

mode	ox/red	error	control changes	counter inc.	time/s	control/V	Ewe/V	<I>/mA	cycle number	(Q-Qo)/C	I Range	P/W
2	0	0	0	0	2,186335746084824E+005	2,0588205E+000	2,0595753E+000	-1,989669352769852E-002	1,000000000000000E+000	0,0000000E+000	41	-4,0978739E-005
2	0	0	1	0	2,187618723285554E+005	1,9433520E+000	1,9441133E+000	-3,116990949246867E-002	1,000000000000000E+000	-3,1269931E-003	41	-6,0597835E-005
2	0	0	1	0	2,188906698487073E+005	1,8274344E+000	1,8282236E+000	-5,120152350544616E-002	1,000000000000000E+000	-8,3374949E-003	41	-9,3607836E-005
2	0	0	1	0	2,190194673688588E+005	1,7115166E+000	1,7123107E+000	-8,479045123017204E-002	1,000000000000000E+000	-1,6932303E-002	41	-1,4518760E-004
2	0	0	1	0	2,191482648890106E+005	1,5955989E+000	1,5963978E+000	-1,379901952329354E-001	1,000000000000000E+000	-3,1034887E-002	40	-2,2028724E-004
2	0	0	1	0	2,192770624091621E+005	1,4796813E+000	1,4804628E+000	-2,298629420500382E-001	1,000000000000000E+000	-5,4198690E-002	40	-3,4030352E-004
2	0	0	1	0	2,194058599293142E+005	1,3637635E+000	1,3645570E+000	-2,919270852720457E-001	1,000000000000000E+000	-8,8907674E-002	40	-3,9835114E-004
2	0	0	1	0	2,195346573494658E+005	1,2478458E+000	1,2486408E+000	-2,907861830048439E-001	1,000000000000000E+000	-1,2691437E-001	40	-3,6308749E-004
2	0	0	1	0	2,196634548696175E+005	1,1319280E+000	1,1327386E+000	-2,627872676104959E-001	1,000000000000000E+000	-1,6268401E-001	40	-2,9766929E-004
2	0	0	1	0	2,197922523897688E+005	1,0160104E+000	1,0168223E+000	-2,350194099490830E-001	1,000000000000000E+000	-1,9466145E-001	40	-2,3897299E-004
2	0	0	1	0	2,199194959096797E+005	1,0984519E+000	1,0992564E+000	-1,287365781769538E-001	1,000000000000000E+000	-2,1702030E-001	40	-1,4151451E-004
2	0	0	1	0	2,200482934298317E+005	1,2143695E+000	1,2151647E+000	-8,176558203292017E-002	1,000000000000000E+000	-2,3027703E-001	40	-9,9358644E-005
2	0	0	1	0	2,201770909499831E+005	1,3302872E+000	1,3310637E+000	-4,970942249913846E-002	1,000000000000000E+000	-2,3868211E-001	40	-6,6166409E-005
2	0	0	1	0	2,203058884701345E+005	1,4462049E+000	1,4469813E+000	-1,517537674249239E-002	1,000000000000000E+000	-2,4295263E-001	41	-2,1958487E-005
2	1	0	1	0	2,204347971903032E+005	1,5622226E+000	1,5630349E+000	3,526549387557132E-002	1,000000000000000E+000	-2,4192008E-001	41	5,5121196E-005
2	1	0	1	0	2,205635947104553E+005	1,6781403E+000	1,6789225E+000	1,776773537412297E-001	1,000000000000000E+000	-2,3005484E-001	40	2,9830652E-004
2	1	0	1	0	2,206923923306069E+005	1,7940580E+000	1,7948300E+000	4,131856930188773E-001	1,000000000000000E+000	-1,9213435E-001	40	7,4159808E-004
2	1	0	1	0	2,208211899507586E+005	1,9099755E+000	1,9107845E+000	4,983286239783693E-001	1,000000000000000E+000	-1,2996140E-001	40	9,5219858E-004
2	1	0	1	0	2,209499873709097E+005	2,0258932E+000	2,0266593E+000	3,108300428885391E-001	1,000000000000000E+000	-7,6662175E-002	40	6,2994659E-004
2	1	0	1	0	2,210787853910616E+005	2,1418111E+000	2,1425679E+000	1,612559262067023E-001	1,000000000000000E+000	-4,7341798E-002	40	3,4550176E-004
2	1	0	1	0	2,212075830112137E+005	2,2577288E+000	2,2584755E+000	9,275676039272174E-002	1,000000000000000E+000	-3,1598911E-002	40	2,0948888E-004
2	1	0	1	0	2,213363804313657E+005	2,3736465E+000	2,3744025E+000	6,268325560208177E-002	1,000000000000000E+000	-2,1810876E-002	40	1,4883529E-004
2	1	0	1	0	2,214652889515357E+005	2,4896636E+000	2,4904022E+000	4,759313217239419E-002	1,000000000000000E+000	-1,4770680E-002	41	1,1852604E-004
2	1	0	1	0	2,215940866716881E+005	2,6055815E+000	2,6063354E+000	3,769081310329059E-002	1,000000000000000E+000	-9,3090497E-003	41	9,8234901E-005
2	1	0	1	0	2,217228842918403E+005	2,7214992E+000	2,7222614E+000	3,102675802822390E-002	1,000000000000000E+000	-4,8665451E-003	41	8,4462947E-005
2	1	0	1	0	2,218516818119925E+005	2,8374169E+000	2,8381562E+000	2,810849570447937E-002	1,000000000000000E+000	-1,0995097E-003	41	7,9776299E-005
2	1	0	1	0	2,219804793321448E+005	2,9533346E+000	2,9540379E+000	2,541787625248149E-002	1,000000000000000E+000	2,3751098E-003	41	7,5085372E-005
2	1	0	1	1	2,221072783519835E+005	2,9324493E+000	2,9331834E+000	9,304761454464600E-003	1,000000000000000E+000	4,6755993E-003	41	2,7292572E-005
2	1	0	1	1	2,222360757721351E+005	2,8165317E+000	2,8172922E+000	3,735474794521680E-003	1,000000000000000E+000	5,4346877E-003	42	1,0523924E-005
2	1	0	1	1	2,223648729922867E+005	2,7006142E+000	2,7013438E+000	1,279519645766418E-003	1,000000000000000E+000	5,7327277E-003	42	3,4564225E-006
2	0	0	1	1	2,224953358126991E+005	2,5831974E+000	2,5839489E+000	-1,209183824724324E-003	1,000000000000000E+000	5,7131802E-003	42	-3,1244692E-006
2	0	0	1	1	2,226241334328507E+005	2,4672797E+000	2,4679646E+000	-3,007324211777036E-003	1,000000000000000E+000	5,4405415E-003	42	-7,4219697E-006
2	0	0	1	1	2,227529308530032E+005	2,3513620E+000	2,3520844E+000	-5,184591917875209E-003	1,000000000000000E+000	4,8997281E-003	42	-1,2194598E-005
2	0	0	1	1	2,228817281731553E+005	2,2354445E+000	2,2361782E+000	-8,801563248694994E-003	1,000000000000000E+000	4,0041688E-003	42	-1,9681864E-005
2	0	0	1	1	2,230105256933072E+005	2,1195269E+000	2,1202631E+000	-1,477243080952573E-002	1,000000000000000E+000	2,5061183E-003	41	-3,1321440E-005
2	0	0	1	1	2,231375465131802E+005	2,0052083E+000	2,0059462E+000	-2,444818248223578E-002	2,000000000000000E+000	4,7963516E-005	41	-4,9041737E-005
2	0	0	1	1	2,232663440333323E+005	1,8892902E+000	1,8900408E+000	-3,991133814774250E-002	2,000000000000000E+000	-4,0353769E-003	41	-7,5434058E-005
2	0	0	1	1	2,233951415534840E+005	1,7733725E+000	1,7741333E+000	-6,573420579417932E-002	2,000000000000000E+000	-1,0709613E-002	41	-1,1662125E-004
2	0	0	1	1	2,235239390736358E+005	1,6574550E+000	1,6581695E+000	-1,082298315833377E-001	2,000000000000000E+000	-2,1726929E-002	40	-1,7946340E-004
2	0	0	1	1	2,236527365937871E+005	1,5415374E+000	1,5422717E+000	-1,773517803825788E-001	2,000000000000000E+000	-3,9703306E-002	40	-2,7352464E-004
2	0	0	1	1	2,237815341139389E+005	1,4256195E+000	1,4263611E+000	-2,755485124797374E-001	2,000000000000000E+000	-6,9152579E-002	40	-3,9303169E-004
2	0	0	1	1	2,239103316340903E+005	1,3097018E+000	1,3104563E+000	-3,015260099339496E-001	2,000000000000000E+000	-1,0696834E-001	40	-3,9513665E-004
2	0	0	1	1	2,240391290542423E+005	1,1937842E+000	1,1945838E+000	-2,819225699981294E-001	2,000000000000000E+000	-1,4485404E-001	40	-3,3678013E-004
2	0	0	1	1	2,241679265743941E+005	1,0778664E+000	1,0786344E+000	-2,504063586854501E-001	2,000000000000000E+000	-1,7913605E-001	40	-2,7009691E-004
2	0	0	1	1	2,242950590942877E+005	1,0364958E+000	1,0372789E+000	-1,738106976042313E-001	2,000000000000000E+000	-2,0802821E-001	40	-1,8029017E-004
2	0	0	1	1	2,244238565144395E+005	1,1524135E+000	1,1532042E+000	-1,035040485272477E-001	2,000000000000000E+000	-2,2521776E-001	40	-1,1936131E-004
2	0	0	1	1	2,245526540345910E+005	1,2683313E+000	1,2690842E+000	-6,593559171314234E-002	2,000000000000000E+000	-2,3594901E-001	40	-8,3677820E-005
2	0	0	1	1	2,246814517547424E+005	1,3842489E+000	1,3850276E+000	-3,433598843338115E-002	2,000000000000000E+000	-2,4241959E-001	41	-4,7556292E-005
2	1	0	1	1	2,248103602749113E+005	1,5002667E+000	1,5010576E+000	5,936122493501877E-003	2,000000000000000E+000	-2,4439454E-001	42	8,9104624E-006
2	1	0	1	1	2,249391577950633E+005	1,6161842E+000	1,6169808E+000	8,039374104136288E-002	2,000000000000000E+000	-2,3966992E-001	41	1,2999514E-004
2	1	0	1	1	2,250679555152152E+005	1,7321019E+000	1,7328809E+000	2,894377118653712E-001	2,000000000000000E+000	-2,1678957E-001	40	5,0156110E-004
2	1	0	1	1	2,251967530353661E+005	1,8480197E+000	1,8487791E+000	5,019064433851810E-001	2,000000000000000E+000	-1,6433209E-001	40	9,2791411E-004
2	1	0	1	1	2,253255505555179E+005	1,9639373E+000	1,9646821E+000	4,275435794974519E-001	2,000000000000000E+000	-1,0086394E-001	40	8,3998725E-004
2	1	0	1	1	2,254543483756701E+005	2,0798547E+000	2,0806069E+000	2,290213109262127E-001	2,000000000000000E+000	-5,9357956E-002	40	4,7650334E-004
2	1	0	1	1	2,255831458958220E+005	2,1957724E+000	2,1965044E+000	1,226095373252754E-001	2,000000000000000E+000	-3,7585385E-002	40	2,6931238E-004
2	1	0	1	1	2,257119437159742E+005	2,3116901E+000	2,3124528E+000	7,641248711392667E-002	2,000000000000000E+000	-2,5160283E-002	40	1,7670027E-004
2	1	0	1	1	2,258407412361270E+005	2,4276080E+000	2,4283617E+000	5,491423178474919E-002	2,000000000000000E+000	-1,6851058E-002	40	1,3335161E-004
2	1	0	1	1	2,259696497562965E+005	2,5436258E+000	2,5443878E+000	4,263828836884742E-002	2,000000000000000E+000	-1,0587214E-002	41	1,0848834E-004
2	1	0	1	1	2,260984472764488E+005	2,6595435E+000	2,6602697E+000	3,471792817670236E-002	2,000000000000000E+000	-5,6371698E-003	41	9,2359056E-005
2	1	0	1	1	2,262272447966007E+005	2,7754607E+000	2,7762010E+000	2,903701783772542E-002	2,000000000000000E+000	-1,5661017E-003	41	8,0612597E-005
2	1	0	1	1	2,263560426167534E+005	2,8913791E+000	2,8921227E+000	2,693515801433072E-002	2,000000000000000E+000	2,0622564E-003	41	7,7899786E-005
2	1	0	1	0	2,264828414365915E+005	2,9944057E+000	2,9951410E+000	1,862417222985130E-002	2,000000000000000E+000	5,2943812E-003	41	5,5782024E-005
2	1	0	1	0	2,266116390567429E+005	2,8784878E+000	2,8792369E+000	6,026004673984731E-003	2,000000000000000E+000	6,6215773E-003	41	1,7350296E-005
2	1	0	1	0	2,267404364768950E+005	2,7625701E+000	2,7632997E+000	2,434363040680419E-003	2,000000000000000E+000	7,1148751E-003	42	6,7268747E-006
2	1	0	1	0	2,268697335971245E+005	2,6462026E+000	2,6469355E+000	6,158502684518109E-005	2,000000000000000E+000	7,2678830E-003	43	1,6301159E-007
2	0	0	1	0	2,269994747174238E+005	2,5294359E+000	2,5301642E+000	-1,891454803723392E-003	2,000000000000000E+000	7,1131703E-003	42	-4,7856911E-006
2	0	0	1	0	2,271282720375760E+005	2,4135182E+000	2,4142420E+000	-4,013487429270615E-003	2,000000000000000E+000	6,7188973E-003	42	-9,6895301E-006
2	0	0	1	0	2,272570695577278E+005	2,2976005E+000	2,2983239E+000	-6,628184865898223E-003	2,000000000000000E+000	6,0371552E-003	42	-1,5233715E-005
2	0	0	1	0	2,273858669778798E+005	2,1816826E+000	2,1824193E+000	-1,119224583578404E-002	2,000000000000000E+000	4,8982659E-003	41	-2,4426174E-005
2	0	0	1	0	2,275146644980321E+005	2,0657647E+000	2,0664823E+000	-1,881680612738040E-002	2,000000000000000E+000	2,9924896E-003	41	-3,8884598E-005
2	0	0	0	0	2,275223247992315E+005	2,0588205E+000	2,0595334E+000	-1,966948467340784E-002	2,000000000000000E+000	2,8452259E-003	41	-4,0509960E-005