File: Dati/210416/CV_LTO-CB_02_CV_C05.mpt
EC-Lab ASCII FILE
Nb header lines : 57

Cyclic Voltammetry

Run on channel : 5 (SN 6809)
User : Seelab
Electrode connection : standard
Ewe ctrl range : min = 0,00 V, max = 5,00 V
Ewe,I filtering : 50 kHz
Safety Limits :
	Do not start on E overload
Channel : Grounded
Acquisition started on : 04/16/2021 18:38:45
Saved on :
	File : CV_LTO-CB_02_CV_C05.mpr
	Directory : C:\Users\labsuperfici\Desktop\Biologic\Users\Prisca Viviani\210416\
	Host : 10.78.33.0
Device : VSP-300 (SN 0638)
Address : USB
EC-Lab for windows v11.31 (software)
Internet server v11.30 (firmware)
Command interpretor v11.31 (firmware)
Electrode material :
Initial state :
Electrolyte :
Comments :
Cable : standard
Reference electrode : SCE Saturated Calomel Electrode (0,241 V)
Electrode surface area : 0,001 cm²
Characteristic mass : 0,001 g
Equivalent Weight : 0,000 g/eq.
Density : 0,000 g/cm3
Cycle Definition : Charge/Discharge alternance
Ei (V)              0,000
vs.                 Eoc
dE/dt               0,100
dE/dt unit          mV/s
E1 (V)              1,000
vs.                 Ref
Step percent        50
N                   10
E range min (V)     0,000
E range max (V)     5,000
I Range             Auto
I Range min         Unset
I Range max         Unset
I Range init        Unset
Bandwidth           8
E2 (V)              3,000
vs.                 Ref
nc cycles           1
Reverse Scan        1
Ef (V)              0,000
vs.                 Eoc

mode	ox/red	error	control changes	counter inc.	time/s	control/V	Ewe/V	<I>/mA	cycle number	(Q-Qo)/C	I Range	P/W
2	1	0	1	0	1,206049969532614E+003	2,0588205E+000	2,0593317E+000	4,070655850227922E-004	1,000000000000000E+000	0,0000000E+000	43	8,3828303E-007
2	0	0	1	0	2,360723340363111E+003	1,9433519E+000	1,9438616E+000	-3,934785905815946E-003	1,000000000000000E+000	-2,6777994E-003	42	-7,6486795E-006
2	0	0	1	0	3,519895911079948E+003	1,8274342E+000	1,8279042E+000	-8,284724514240976E-003	1,000000000000000E+000	-9,6379742E-003	42	-1,5143683E-005
2	0	0	1	0	4,679068489467027E+003	1,7115165E+000	1,7120190E+000	-1,532419552044451E-002	1,000000000000000E+000	-2,3054533E-002	41	-2,6235313E-005
2	0	0	1	0	5,838241075432685E+003	1,5955988E+000	1,5960722E+000	-2,638278269273198E-002	1,000000000000000E+000	-4,6582922E-002	41	-4,2108826E-005
2	0	0	1	0	6,997414461398344E+003	1,4796810E+000	1,4801202E+000	-7,059600007434774E-002	1,000000000000000E+000	-9,7396627E-002	41	-1,0449057E-004
2	0	0	1	0	8,156587047364024E+003	1,3637633E+000	1,3641561E+000	-7,680181195686697E-002	1,000000000000000E+000	-1,8930833E-001	41	-1,0476966E-004
2	0	0	1	0	9,315759033329727E+003	1,2478458E+000	1,2482554E+000	-5,543714911683950E-002	1,000000000000000E+000	-2,6532370E-001	41	-6,9199719E-005
2	0	0	1	0	1,047493161929536E+004	1,1319281E+000	1,1323406E+000	-4,189457868139845E-002	1,000000000000000E+000	-3,2067630E-001	41	-4,7438931E-005
2	0	0	1	0	1,163410430526103E+004	1,0160103E+000	1,0164348E+000	-3,598262216543990E-002	1,000000000000000E+000	-3,6549944E-001	41	-3,6573991E-005
2	0	0	1	0	1,277929359139604E+004	1,0984519E+000	1,0988741E+000	-1,411145092133499E-002	1,000000000000000E+000	-3,9240968E-001	41	-1,5506708E-005
2	0	0	1	0	1,393847317736162E+004	1,2143695E+000	1,2148283E+000	-6,357021558179916E-003	1,000000000000000E+000	-4,0369594E-001	41	-7,7226896E-006
2	0	0	1	0	1,509765286332718E+004	1,3302872E+000	1,3307620E+000	-2,096135464169042E-003	1,000000000000000E+000	-4,0834647E-001	42	-2,7894575E-006
2	1	0	1	0	1,625683194929278E+004	1,4462048E+000	1,4466796E+000	2,042177133550039E-003	1,000000000000000E+000	-4,0860903E-001	42	2,9543760E-006
2	1	0	1	0	1,741601173525836E+004	1,5621226E+000	1,5626280E+000	1,058647805449489E-002	1,000000000000000E+000	-4,0190163E-001	41	1,6542728E-005
2	1	0	1	0	1,857519172122396E+004	1,6780404E+000	1,6785624E+000	6,585328565673687E-002	1,000000000000000E+000	-3,6087415E-001	41	1,1053885E-004
2	1	0	1	0	1,973437090718954E+004	1,7939579E+000	1,7944660E+000	8,584985124412158E-002	1,000000000000000E+000	-2,6665932E-001	41	1,5405464E-004
2	1	0	1	0	2,089355069315512E+004	1,9098755E+000	1,9103811E+000	5,238687843892287E-002	1,000000000000000E+000	-1,8448994E-001	41	1,0007890E-004
2	1	0	1	0	2,205273037912072E+004	2,0257931E+000	2,0262954E+000	2,531837845332130E-002	1,000000000000000E+000	-1,4147078E-001	41	5,1302515E-005
2	1	0	1	0	2,321191076508630E+004	2,1417110E+000	2,1421776E+000	1,493252940535117E-002	1,000000000000000E+000	-1,1909773E-001	41	3,1988129E-005
2	1	0	1	0	2,437109065105196E+004	2,2576287E+000	2,2584057E+000	1,045332100010061E-002	1,000000000000000E+000	-1,0461715E-001	41	2,3607839E-005
2	1	0	1	0	2,553026983701749E+004	2,3735464E+000	2,3743532E+000	7,831825573463375E-003	1,000000000000000E+000	-9,4094507E-002	41	1,8595520E-005
2	1	0	1	0	2,668944902298307E+004	2,4894640E+000	2,4902489E+000	6,316505020609375E-003	1,000000000000000E+000	-8,5969433E-002	41	1,5729669E-005
2	1	0	1	0	2,784862820894871E+004	2,6053817E+000	2,6061511E+000	5,402278017139273E-003	1,000000000000000E+000	-7,9201415E-002	41	1,4079153E-005
2	1	0	1	0	2,900780849491425E+004	2,7212994E+000	2,7220984E+000	5,136530305151300E-003	1,000000000000000E+000	-7,3123015E-002	41	1,3982140E-005
2	1	0	1	0	3,016698848087984E+004	2,8372173E+000	2,8380115E+000	5,108565845546573E-003	1,000000000000000E+000	-6,7252845E-002	41	1,4498169E-005
2	1	0	1	0	3,132616756684543E+004	2,9531348E+000	2,9539382E+000	6,113387707859151E-003	1,000000000000000E+000	-6,0607333E-002	41	1,8058570E-005
2	1	0	1	1	3,246934925300471E+004	2,9324496E+000	2,9332595E+000	2,956845944407559E-003	1,000000000000000E+000	-5,5062819E-002	42	8,6731961E-006
2	1	0	1	1	3,362851415099180E+004	2,8165319E+000	2,8173103E+000	1,833135227499540E-003	1,000000000000000E+000	-5,2461442E-002	42	5,1645106E-006
2	1	0	1	1	3,478768095315096E+004	2,7006142E+000	2,7014031E+000	1,216830462196616E-003	1,000000000000000E+000	-5,0740540E-002	42	3,2871496E-006
2	1	0	1	1	3,594684585531009E+004	2,5846965E+000	2,5854638E+000	7,041715505828852E-004	1,000000000000000E+000	-4,9677093E-002	42	1,8206100E-006
2	1	0	1	1	3,710601195746916E+004	2,4687788E+000	2,4695890E+000	1,681164830468207E-004	1,000000000000000E+000	-4,9205452E-002	43	4,1517862E-007
2	0	0	1	1	3,826517795962840E+004	2,3528609E+000	2,3536570E+000	-4,014114909220486E-004	1,000000000000000E+000	-4,9372856E-002	43	-9,4478497E-007
2	0	0	1	1	3,942434286178742E+004	2,2369435E+000	2,2377350E+000	-1,015179517207167E-003	1,000000000000000E+000	-5,0232060E-002	42	-2,2717027E-006
2	0	0	1	1	4,058350976394652E+004	2,1210258E+000	2,1218624E+000	-1,987199800405324E-003	1,000000000000000E+000	-5,1951557E-002	42	-4,2165648E-006
2	0	0	1	1	4,173168346608522E+004	2,0062072E+000	2,0070248E+000	-3,562771401635523E-003	2,000000000000000E+000	-5,5092402E-002	42	-7,1505706E-006
2	0	0	1	1	4,289085666824423E+004	1,8902895E+000	1,8910950E+000	-6,416390722040595E-003	2,000000000000000E+000	-6,0752057E-002	42	-1,2134004E-005
2	0	0	1	1	4,405002877040347E+004	1,7743719E+000	1,7752208E+000	-1,114558125818832E-002	2,000000000000000E+000	-7,0737965E-002	41	-1,9785866E-005
2	0	0	1	1	4,520920237256255E+004	1,6584542E+000	1,6592622E+000	-1,880343188087524E-002	2,000000000000000E+000	-8,7846167E-002	41	-3,1199823E-005
2	0	0	1	1	4,636837537472171E+004	1,5425365E+000	1,5433289E+000	-3,497199790037098E-002	2,000000000000000E+000	-1,1726613E-001	41	-5,3973294E-005
2	0	0	1	1	4,752754737688077E+004	1,4266188E+000	1,4274188E+000	-7,422043495300767E-002	2,000000000000000E+000	-1,8166381E-001	41	-1,0594365E-004
2	0	0	1	1	4,868671997903998E+004	1,3107010E+000	1,3114680E+000	-7,186289797243617E-002	2,000000000000000E+000	-2,6996315E-001	41	-9,4245894E-005
2	0	0	1	1	4,984589258119918E+004	1,1947833E+000	1,1955938E+000	-5,351024933787923E-002	2,000000000000000E+000	-3,4239507E-001	41	-6,3976528E-005
2	0	0	1	1	5,100506558335823E+004	1,0788656E+000	1,0796719E+000	-4,613933664326769E-002	2,000000000000000E+000	-3,9874315E-001	41	-4,9815342E-005
2	0	0	1	1	5,214925098548946E+004	1,0354964E+000	1,0363002E+000	-3,191243566977053E-002	2,000000000000000E+000	-4,4894618E-001	41	-3,3070864E-005
2	0	0	1	1	5,330843078764854E+004	1,1514142E+000	1,1522579E+000	-1,343255543580862E-002	2,000000000000000E+000	-4,7337601E-001	41	-1,5477768E-005
2	0	0	1	1	5,446761058980774E+004	1,2673318E+000	1,2681172E+000	-5,008685742364655E-003	2,000000000000000E+000	-4,8352614E-001	41	-6,3516004E-006
2	0	0	1	1	5,562778929196863E+004	1,3833495E+000	1,3841356E+000	-3,233221161261604E-005	2,000000000000000E+000	-4,8626119E-001	44	-4,4752166E-008
2	1	0	1	1	5,678696899412785E+004	1,4992672E+000	1,5000949E+000	6,607931418187524E-003	2,000000000000000E+000	-4,8273760E-001	42	9,9125245E-006
2	1	0	1	1	5,794614779628703E+004	1,6151848E+000	1,6160007E+000	2,998693583164191E-002	2,000000000000000E+000	-4,6712300E-001	41	4,8458907E-005
2	1	0	1	1	5,910532819844611E+004	1,7311025E+000	1,7319614E+000	8,841013454805258E-002	2,000000000000000E+000	-3,9631605E-001	41	1,5312294E-004
2	1	0	1	1	6,026450800060527E+004	1,8470204E+000	1,8478491E+000	9,205470524070281E-002	2,000000000000000E+000	-2,8379378E-001	41	1,7010320E-004
2	1	0	1	1	6,142368720276435E+004	1,9629381E+000	1,9637548E+000	4,786752213490070E-002	2,000000000000000E+000	-2,0241338E-001	41	9,4000075E-005
2	1	0	1	1	6,258286790492357E+004	2,0788555E+000	2,0796998E+000	2,202375990267579E-002	2,000000000000000E+000	-1,6443020E-001	41	4,5802808E-005
2	1	0	1	1	6,374204690708264E+004	2,1947734E+000	2,1955578E+000	1,298839035744855E-002	2,000000000000000E+000	-1,4490181E-001	41	2,8516763E-005
2	1	0	1	1	6,490122600924183E+004	2,3106909E+000	2,3114543E+000	8,906340073892710E-003	2,000000000000000E+000	-1,3242334E-001	41	2,0586598E-005
2	1	0	1	1	6,606040628637315E+004	2,4266086E+000	2,4273944E+000	6,675467324401135E-003	2,000000000000000E+000	-1,2348818E-001	41	1,6203992E-005
2	1	0	1	1	6,721958641217183E+004	2,5425265E+000	2,5432839E+000	5,407703498439914E-003	2,000000000000000E+000	-1,1645666E-001	41	1,3753325E-005
2	1	0	1	1	6,837976403773762E+004	2,6585441E+000	2,6592743E+000	4,524113788755751E-003	2,000000000000000E+000	-1,1072957E-001	42	1,2030860E-005
2	1	0	1	1	6,953894276353694E+004	2,7744615E+000	2,7751939E+000	4,394044928157773E-003	2,000000000000000E+000	-1,0559020E-001	42	1,2194327E-005
2	1	0	1	1	7,069812158933678E+004	2,8903792E+000	2,8911088E+000	5,942939718840440E-003	2,000000000000000E+000	-9,9419020E-002	42	1,7181685E-005
2	1	0	1	0	7,183931211941817E+004	2,9954047E+000	2,9961584E+000	4,435819187464274E-003	2,000000000000000E+000	-9,3143925E-002	42	1,3290417E-005
2	1	0	1	0	7,299847874523373E+004	2,8794870E+000	2,8802354E+000	1,490955894982673E-003	2,000000000000000E+000	-9,0296619E-002	42	4,2943038E-006
2	1	0	1	0	7,415764457104704E+004	2,7635694E+000	2,7643051E+000	7,621175677293909E-004	2,000000000000000E+000	-8,9103401E-002	42	2,1067256E-006
2	1	0	1	0	7,531681029685703E+004	2,6476519E+000	2,6483753E+000	3,688948850855099E-004	2,000000000000000E+000	-8,8477656E-002	43	9,7697205E-007
2	1	0	1	0	7,647697382243071E+004	2,5316341E+000	2,5323570E+000	-8,137331975629177E-006	2,000000000000000E+000	-8,8301979E-002	44	-2,0606629E-008
2	0	0	1	0	7,763613854823704E+004	2,4157166E+000	2,4164262E+000	-4,023493298595422E-004	2,000000000000000E+000	-8,8580787E-002	43	-9,7224745E-007
2	0	0	1	0	7,879530507403973E+004	2,2997990E+000	2,3005023E+000	-8,531514797927749E-004	2,000000000000000E+000	-8,9328036E-002	42	-1,9626768E-006
2	0	0	1	0	7,995447079984332E+004	2,1838810E+000	2,1845875E+000	-1,569700405327584E-003	2,000000000000000E+000	-9,0721607E-002	42	-3,4291479E-006
2	0	0	1	0	8,111363662564522E+004	2,0679634E+000	2,0687010E+000	-2,833139232079548E-003	2,000000000000000E+000	-9,3240522E-002	42	-5,8609180E-006
2	0	0	1	0	8,120456050412660E+004	2,0588205E+000	2,0595410E+000	-3,026999257909137E-003	2,000000000000000E+000	-9,3506992E-002	42	-6,2342292E-006