File: Dati/210416/CV_LTO-CB_03_CV_C05.mpt
EC-Lab ASCII FILE
Nb header lines : 57

Cyclic Voltammetry

Run on channel : 5 (SN 6809)
User : Seelab
Electrode connection : standard
Ewe ctrl range : min = 0,00 V, max = 5,00 V
Ewe,I filtering : 50 kHz
Safety Limits :
	Do not start on E overload
Channel : Grounded
Acquisition started on : 04/16/2021 18:38:45
Saved on :
	File : CV_LTO-CB_03_CV_C05.mpr
	Directory : C:\Users\labsuperfici\Desktop\Biologic\Users\Prisca Viviani\210416\
	Host : 10.78.33.0
Device : VSP-300 (SN 0638)
Address : USB
EC-Lab for windows v11.31 (software)
Internet server v11.30 (firmware)
Command interpretor v11.31 (firmware)
Electrode material :
Initial state :
Electrolyte :
Comments :
Cable : standard
Reference electrode : SCE Saturated Calomel Electrode (0,241 V)
Electrode surface area : 0,001 cm²
Characteristic mass : 0,001 g
Equivalent Weight : 0,000 g/eq.
Density : 0,000 g/cm3
Cycle Definition : Charge/Discharge alternance
Ei (V)              0,000
vs.                 Eoc
dE/dt               0,200
dE/dt unit          mV/s
E1 (V)              1,000
vs.                 Ref
Step percent        50
N                   10
E range min (V)     0,000
E range max (V)     5,000
I Range             Auto
I Range min         Unset
I Range max         Unset
I Range init        Unset
Bandwidth           8
E2 (V)              3,000
vs.                 Ref
nc cycles           1
Reverse Scan        1
Ef (V)              0,000
vs.                 Eoc

mode	ox/red	error	control changes	counter inc.	time/s	control/V	Ewe/V	<I>/mA	cycle number	(Q-Qo)/C	I Range	P/W
2	0	0	1	0	8,120515930398507E+004	2,0588205E+000	2,0594990E+000	-3,054997883737087E-003	1,000000000000000E+000	0,0000000E+000	42	-6,2917652E-006
2	0	0	1	0	8,178249796742690E+004	1,9433519E+000	1,9440836E+000	-8,405015115918762E-003	1,000000000000000E+000	-3,4471480E-003	42	-1,6340051E-005
2	0	0	1	0	8,236208593033382E+004	1,8274343E+000	1,8281630E+000	-1,493292177917785E-002	1,000000000000000E+000	-1,0111258E-002	41	-2,7299815E-005
2	0	0	1	0	8,294167389324098E+004	1,7115166E+000	1,7122736E+000	-2,492677398815672E-002	1,000000000000000E+000	-2,1462537E-002	41	-4,2681459E-005
2	0	0	1	0	8,352126185614616E+004	1,5955991E+000	1,5963252E+000	-4,021525886255173E-002	1,000000000000000E+000	-4,0028565E-002	41	-6,4196633E-005
2	0	0	1	0	8,410084981905401E+004	1,4796811E+000	1,4803721E+000	-7,343545848840116E-002	1,000000000000000E+000	-7,1431167E-002	41	-1,0871180E-004
2	0	0	1	0	8,468043778196018E+004	1,3637633E+000	1,3644853E+000	-1,162844956218770E-001	1,000000000000000E+000	-1,2823051E-001	40	-1,5866848E-004
2	0	0	1	0	8,526002544486686E+004	1,2478459E+000	1,2485653E+000	-1,134827797071473E-001	1,000000000000000E+000	-1,9666485E-001	40	-1,4169066E-004
2	0	0	1	0	8,583961340777413E+004	1,1319281E+000	1,1326663E+000	-9,169873788475202E-002	1,000000000000000E+000	-2,5621456E-001	40	-1,0386408E-004
2	0	0	1	0	8,641920137067907E+004	1,0160104E+000	1,0167630E+000	-7,513710819556463E-002	1,000000000000000E+000	-3,0402327E-001	40	-7,6396631E-005
2	0	0	1	0	8,699179593524034E+004	1,0984519E+000	1,0992153E+000	-3,344311336116701E-002	1,000000000000000E+000	-3,3370841E-001	41	-3,6761179E-005
2	0	0	1	0	8,757138549814047E+004	1,2143695E+000	1,2150913E+000	-1,662994001880463E-002	1,000000000000000E+000	-3,4758836E-001	41	-2,0206897E-005
2	0	0	1	0	8,815097516103997E+004	1,3302873E+000	1,3310306E+000	-7,853321736868497E-003	1,000000000000000E+000	-3,5447329E-001	41	-1,0453012E-005
2	1	0	1	0	8,873056462394050E+004	1,4462050E+000	1,4469546E+000	1,554606111584055E-003	1,000000000000000E+000	-3,5647604E-001	42	2,2494444E-006
2	1	0	1	0	8,931015428683907E+004	1,5621227E+000	1,5628736E+000	1,662146534514836E-002	1,000000000000000E+000	-3,5159943E-001	41	2,5977250E-005
2	1	0	1	0	8,988974434973998E+004	1,6780404E+000	1,6788133E+000	7,804628039350292E-002	1,000000000000000E+000	-3,2753503E-001	41	1,3102514E-004
2	1	0	1	0	9,046933381263935E+004	1,7939579E+000	1,7947007E+000	1,506950828025033E-001	1,000000000000000E+000	-2,5988573E-001	40	2,7045258E-004
2	1	0	1	0	9,104892357553961E+004	1,9098756E+000	1,9106009E+000	1,543902266838559E-001	1,000000000000000E+000	-1,6649653E-001	40	2,9497812E-004
2	1	0	1	0	9,162851393843931E+004	2,0257931E+000	2,0265203E+000	8,632267712558961E-002	1,000000000000000E+000	-9,5760562E-002	40	1,7493466E-004
2	1	0	1	0	9,220810400133883E+004	2,1417110E+000	2,1424308E+000	4,044382773026667E-002	1,000000000000000E+000	-6,1012127E-002	41	8,6648099E-005
2	1	0	1	0	9,278769366423949E+004	2,2576287E+000	2,2583513E+000	2,328639485020002E-002	1,000000000000000E+000	-4,3294501E-002	41	5,2588861E-005
2	1	0	1	0	9,336728312713874E+004	2,3735466E+000	2,3742852E+000	1,574488668336455E-002	1,000000000000000E+000	-3,2216895E-002	41	3,7382852E-005
2	1	0	1	0	9,394687259003916E+004	2,4894640E+000	2,4901905E+000	1,191152063389397E-002	1,000000000000000E+000	-2,4302639E-002	41	2,9661956E-005
2	1	0	1	0	9,452646205294202E+004	2,6053820E+000	2,6061089E+000	9,289641876916766E-003	1,000000000000000E+000	-1,8179210E-002	41	2,4209818E-005
2	1	0	1	0	9,510605211584410E+004	2,7212996E+000	2,7220347E+000	7,837001819706924E-003	1,000000000000000E+000	-1,3231451E-002	41	2,1332591E-005
2	1	0	1	0	9,568564207874925E+004	2,8372171E+000	2,8379483E+000	8,615735301741034E-003	1,000000000000000E+000	-8,6795315E-003	41	2,4451012E-005
2	1	0	1	0	9,626523144165403E+004	2,9531348E+000	2,9538682E+000	8,118525271920779E-003	1,000000000000000E+000	-3,6192976E-003	41	2,3981052E-005
2	1	0	1	1	9,683682430646732E+004	2,9324496E+000	2,9331565E+000	3,057632997880609E-003	1,000000000000000E+000	-1,8854362E-004	42	8,9685163E-006
2	1	0	1	1	9,741641016937490E+004	2,8165319E+000	2,8172574E+000	1,215647687271908E-003	1,000000000000000E+000	9,2180050E-004	42	3,4247923E-006
2	1	0	1	1	9,799599683228089E+004	2,7006140E+000	2,7013366E+000	4,980667610282302E-004	1,000000000000000E+000	1,3855301E-003	43	1,3454460E-006
2	0	0	1	1	9,857608279506979E+004	2,5845964E+000	2,5853181E+000	-1,425924907593745E-004	1,000000000000000E+000	1,4503445E-003	43	-3,6864694E-007
2	0	0	1	1	9,915566925797635E+004	2,4686787E+000	2,4693656E+000	-7,685395294661137E-004	1,000000000000000E+000	1,1708386E-003	43	-1,8978051E-006
2	0	0	1	1	9,973525512088300E+004	2,3527610E+000	2,3534749E+000	-1,423073112801532E-003	1,000000000000000E+000	5,2165834E-004	42	-3,3491667E-006
2	0	0	1	1	1,003148410837909E+005	2,2368436E+000	2,2375531E+000	-2,380679837794423E-003	1,000000000000000E+000	-5,8012980E-004	42	-5,3268977E-006
2	0	0	1	1	1,008944269466945E+005	2,1209259E+000	2,1216428E+000	-4,053308365393388E-003	1,000000000000000E+000	-2,4182103E-003	42	-8,5996726E-006
2	0	0	1	1	1,014680177110082E+005	2,0062070E+000	2,0069256E+000	-6,855532888393773E-003	2,000000000000000E+000	-5,4933745E-003	42	-1,3758544E-005
2	0	0	1	1	1,020476059739084E+005	1,8902895E+000	1,8910259E+000	-1,163630072146897E-002	2,000000000000000E+000	-1,0747939E-002	41	-2,2004546E-005
2	0	0	1	1	1,026271936368080E+005	1,7743720E+000	1,7751060E+000	-1,936495799169480E-002	2,000000000000000E+000	-1,9585652E-002	41	-3,4374851E-005
2	0	0	1	1	1,032067817997094E+005	1,6584542E+000	1,6591930E+000	-3,138823485015935E-002	2,000000000000000E+000	-3,4093983E-002	41	-5,2079140E-005
2	0	0	1	1	1,037863700626092E+005	1,5425365E+000	1,5432462E+000	-5,208347469126229E-002	2,000000000000000E+000	-5,7521790E-002	41	-8,0377620E-005
2	0	0	1	1	1,043659576255095E+005	1,4266188E+000	1,4273481E+000	-9,906837171485228E-002	2,000000000000000E+000	-1,0013591E-001	41	-1,4140505E-004
2	0	0	1	1	1,049455455884099E+005	1,3107013E+000	1,3114698E+000	-1,225981773239613E-001	2,000000000000000E+000	-1,6703877E-001	40	-1,6078381E-004
2	0	0	1	1	1,055251335513098E+005	1,1947833E+000	1,1955402E+000	-1,050226089844380E-001	2,000000000000000E+000	-2,3412146E-001	40	-1,2555876E-004
2	0	0	1	1	1,061047215142110E+005	1,0788658E+000	1,0796431E+000	-8,132621163794873E-002	2,000000000000000E+000	-2,8789991E-001	40	-8,7803288E-005
2	0	0	1	1	1,066768153788815E+005	1,0354966E+000	1,0362324E+000	-4,848742324941391E-002	2,000000000000000E+000	-3,2789341E-001	40	-5,0244238E-005
2	0	0	1	1	1,072564051417876E+005	1,1514142E+000	1,1522015E+000	-2,249020664951235E-002	2,000000000000000E+000	-3,4715977E-001	41	-2,5913250E-005
2	0	0	1	1	1,078359949046946E+005	1,2673320E+000	1,2680813E+000	-1,106495011624173E-002	2,000000000000000E+000	-3,5650012E-001	41	-1,4031257E-005
2	0	0	1	1	1,084155842675999E+005	1,3832495E+000	1,3840059E+000	-3,117574618034618E-003	2,000000000000000E+000	-3,6061725E-001	42	-4,3147415E-006
2	1	0	1	1	1,089951738305076E+005	1,4991673E+000	1,4999291E+000	8,109980412459250E-003	2,000000000000000E+000	-3,5939130E-001	42	1,2164395E-005
2	1	0	1	1	1,095747633934126E+005	1,6150850E+000	1,6158297E+000	3,604854876352392E-002	2,000000000000000E+000	-3,4904775E-001	41	5,8248315E-005
2	1	0	1	1	1,101543533563189E+005	1,7310028E+000	1,7317653E+000	1,175623726628241E-001	2,000000000000000E+000	-3,0469421E-001	40	2,0359043E-004
2	1	0	1	1	1,107339428192251E+005	1,8469206E+000	1,8476304E+000	1,695526999516261E-001	2,000000000000000E+000	-2,1802703E-001	40	3,1327072E-004
2	1	0	1	1	1,113135325821311E+005	1,9628382E+000	1,9635893E+000	1,290786219629774E-001	2,000000000000000E+000	-1,2725636E-001	40	2,5345740E-004
2	1	0	1	1	1,118931235450380E+005	2,0787559E+000	2,0795255E+000	6,085919942243141E-002	2,000000000000000E+000	-7,3683783E-002	40	1,2655825E-004
2	1	0	1	1	1,124732124078239E+005	2,1947732E+000	2,1954911E+000	3,054427596141962E-002	2,000000000000000E+000	-4,8651405E-002	41	6,7059686E-005
2	1	0	1	1	1,130528018707305E+005	2,3106911E+000	2,3114450E+000	1,891900774814281E-002	2,000000000000000E+000	-3,4756169E-002	41	4,3730244E-005
2	1	0	1	1	1,136323919336369E+005	2,4266088E+000	2,4273651E+000	1,337760686344944E-002	2,000000000000000E+000	-2,5570417E-002	41	3,2472337E-005
2	1	0	1	1	1,142119819965409E+005	2,5425265E+000	2,5432384E+000	1,027701612504982E-002	2,000000000000000E+000	-1,8732022E-002	41	2,6136902E-005
2	1	0	1	1	1,147915712594453E+005	2,6584442E+000	2,6591291E+000	8,238504267335467E-003	2,000000000000000E+000	-1,3423537E-002	41	2,1907246E-005
2	1	0	1	1	1,153711605223469E+005	2,7743616E+000	2,7750711E+000	7,279168152378196E-003	2,000000000000000E+000	-8,9911232E-003	41	2,0200210E-005
2	1	0	1	1	1,159507499852477E+005	2,8902795E+000	2,8910053E+000	8,032771974748179E-003	2,000000000000000E+000	-4,3932679E-003	41	2,3222787E-005
2	1	0	1	0	1,165218450501412E+005	2,9954050E+000	2,9961178E+000	5,909457705457144E-003	2,000000000000000E+000	-7,8253157E-005	41	1,7705432E-005
2	1	0	1	0	1,171014317130416E+005	2,8794870E+000	2,8802261E+000	1,743910489901367E-003	2,000000000000000E+000	1,7104632E-003	42	5,0228564E-006
2	1	0	1	0	1,176810181759435E+005	2,7635694E+000	2,7643051E+000	7,325377734131349E-004	2,000000000000000E+000	2,3562270E-003	42	2,0249579E-006
2	1	0	1	0	1,182606046388429E+005	2,6476519E+000	2,6483901E+000	8,732459948056865E-005	2,000000000000000E+000	2,5832898E-003	43	2,3126960E-007
2	0	0	1	0	1,188406900016270E+005	2,5316339E+000	2,5323746E+000	-4,565510246820718E-004	2,000000000000000E+000	2,4500359E-003	43	-1,1561582E-006
2	0	0	1	0	1,194202758645280E+005	2,4157166E+000	2,4164712E+000	-1,059983028583709E-003	2,000000000000000E+000	1,9894654E-003	42	-2,5614186E-006
2	0	0	1	0	1,199998626274276E+005	2,2997987E+000	2,3005247E+000	-1,792021218380340E-003	2,000000000000000E+000	1,1597665E-003	42	-4,1225890E-006
2	0	0	1	0	1,205794490903313E+005	2,1838810E+000	2,1846056E+000	-3,024349504112886E-003	2,000000000000000E+000	-2,2336167E-004	42	-6,6070111E-006
2	0	0	1	0	1,211590355532349E+005	2,0679631E+000	2,0687222E+000	-5,242303181623706E-003	2,000000000000000E+000	-2,5872558E-003	42	-1,0844869E-005
2	0	0	0	0	1,212044976424917E+005	2,0588205E+000	2,0595753E+000	-5,555082581636003E-003	2,000000000000000E+000	-2,8326351E-003	42	-1,1441111E-005