File: Dati/210416/CV_LTO-CB_09_CV_C05.mpt
EC-Lab ASCII FILE
Nb header lines : 57

Cyclic Voltammetry

Run on channel : 5 (SN 6809)
User : Seelab
Electrode connection : standard
Ewe ctrl range : min = 0,00 V, max = 5,00 V
Ewe,I filtering : 50 kHz
Safety Limits :
	Do not start on E overload
Channel : Grounded
Acquisition started on : 04/16/2021 18:38:45
Saved on :
	File : CV_LTO-CB_09_CV_C05.mpr
	Directory : C:\Users\labsuperfici\Desktop\Biologic\Users\Prisca Viviani\210416\
	Host : 10.78.33.0
Device : VSP-300 (SN 0638)
Address : USB
EC-Lab for windows v11.31 (software)
Internet server v11.30 (firmware)
Command interpretor v11.31 (firmware)
Electrode material :
Initial state :
Electrolyte :
Comments :
Cable : standard
Reference electrode : SCE Saturated Calomel Electrode (0,241 V)
Electrode surface area : 0,001 cm²
Characteristic mass : 0,001 g
Equivalent Weight : 0,000 g/eq.
Density : 0,000 g/cm3
Cycle Definition : Charge/Discharge alternance
Ei (V)              0,000
vs.                 Eoc
dE/dt               0,800
dE/dt unit          mV/s
E1 (V)              1,000
vs.                 Ref
Step percent        50
N                   10
E range min (V)     0,000
E range max (V)     5,000
I Range             Auto
I Range min         Unset
I Range max         Unset
I Range init        Unset
Bandwidth           8
E2 (V)              3,000
vs.                 Ref
nc cycles           1
Reverse Scan        1
Ef (V)              0,000
vs.                 Eoc

mode	ox/red	error	control changes	counter inc.	time/s	control/V	Ewe/V	<I>/mA	cycle number	(Q-Qo)/C	I Range	P/W
2	0	0	1	0	2,086335220438549E+005	2,0588205E+000	2,0595181E+000	-1,775736734271050E-002	1,000000000000000E+000	0,0000000E+000	41	-3,6571619E-005
2	0	0	1	0	2,087778570664388E+005	1,9433522E+000	1,9440867E+000	-2,908819968206333E-002	1,000000000000000E+000	-3,2718554E-003	41	-5,6549979E-005
2	0	0	1	0	2,089227541891076E+005	1,8274341E+000	1,8281645E+000	-4,809481332173793E-002	1,000000000000000E+000	-8,7669678E-003	41	-8,7925226E-005
2	0	0	1	0	2,090676514117816E+005	1,7115164E+000	1,7122175E+000	-7,985724319572873E-002	1,000000000000000E+000	-1,7863689E-002	41	-1,3673297E-004
2	0	0	1	0	2,092125486344508E+005	1,5955987E+000	1,5963042E+000	-1,304689260805985E-001	1,000000000000000E+000	-3,2834973E-002	40	-2,0826809E-004
2	0	0	1	0	2,093574457571222E+005	1,4796811E+000	1,4803751E+000	-2,215393229963478E-001	1,000000000000000E+000	-5,7706963E-002	40	-3,2796129E-004
2	0	0	1	0	2,095023428797929E+005	1,3637633E+000	1,3644801E+000	-2,809751571295682E-001	1,000000000000000E+000	-9,5410392E-002	40	-3,8338502E-004
2	0	0	1	0	2,096472399024628E+005	1,2478458E+000	1,2485732E+000	-2,766681806084446E-001	1,000000000000000E+000	-1,3633232E-001	40	-3,4544047E-004
2	0	0	1	0	2,097921371251356E+005	1,1319281E+000	1,1326452E+000	-2,478193735878564E-001	1,000000000000000E+000	-1,7445987E-001	40	-2,8069143E-004
2	0	0	1	0	2,099370343478043E+005	1,0160103E+000	1,0167246E+000	-2,194337508645590E-001	1,000000000000000E+000	-2,0821869E-001	40	-2,2310369E-004
2	0	0	1	0	2,100801831702041E+005	1,0984519E+000	1,0992064E+000	-1,182978367379337E-001	1,000000000000000E+000	-2,3153873E-001	40	-1,3003375E-004
2	0	0	1	0	2,102250803928731E+005	1,2143694E+000	1,2150983E+000	-7,405773572943444E-002	1,000000000000000E+000	-2,4514717E-001	40	-8,9987429E-005
2	0	0	1	0	2,103699777155449E+005	1,3302873E+000	1,3309731E+000	-4,459892669794441E-002	1,000000000000000E+000	-2,5366807E-001	41	-5,9359973E-005
2	0	0	1	0	2,105148749382152E+005	1,4462050E+000	1,4469175E+000	-1,261456523207455E-002	1,000000000000000E+000	-2,5789952E-001	41	-1,8252236E-005
2	1	0	1	0	2,106598970609051E+005	1,5622225E+000	1,5629506E+000	3,423764441138633E-002	1,000000000000000E+000	-2,5661245E-001	41	5,3511747E-005
2	1	0	1	0	2,108047942835770E+005	1,6781400E+000	1,6788867E+000	1,716729648354494E-001	1,000000000000000E+000	-2,4372129E-001	40	2,8821945E-004
2	1	0	1	0	2,109496916062459E+005	1,7940580E+000	1,7948109E+000	4,050859710508830E-001	1,000000000000000E+000	-2,0221238E-001	40	7,2705268E-004
2	1	0	1	0	2,110945889289198E+005	1,9099756E+000	1,9107056E+000	4,743163760743858E-001	1,000000000000000E+000	-1,3433748E-001	40	9,0627896E-004
2	1	0	1	0	2,112394860515890E+005	2,0258930E+000	2,0266237E+000	2,875632756581563E-001	1,000000000000000E+000	-7,8270309E-002	40	5,8278255E-004
2	1	0	1	0	2,113843835742604E+005	2,1418107E+000	2,1425307E+000	1,475922849331397E-001	1,000000000000000E+000	-4,7878951E-002	40	3,1622101E-004
2	1	0	1	0	2,115292807969311E+005	2,2577288E+000	2,2584107E+000	8,426472379137873E-002	1,000000000000000E+000	-3,1729940E-002	40	1,9030436E-004
2	1	0	1	0	2,116741779196016E+005	2,3736460E+000	2,3743601E+000	5,670412235753070E-002	1,000000000000000E+000	-2,1744706E-002	40	1,3463601E-004
2	1	0	1	0	2,118192000422932E+005	2,4896636E+000	2,4903419E+000	4,283904128334759E-002	1,000000000000000E+000	-1,4601115E-002	41	1,0668386E-004
2	1	0	1	0	2,119640973649619E+005	2,6055818E+000	2,6063001E+000	3,376843102816174E-002	1,000000000000000E+000	-9,0835765E-003	41	8,8010667E-005
2	1	0	1	0	2,121089946876350E+005	2,7214992E+000	2,7221918E+000	2,768776991786837E-002	1,000000000000000E+000	-4,6147145E-003	41	7,5371419E-005
2	1	0	1	0	2,122538919103048E+005	2,8374169E+000	2,8381538E+000	2,526610677400717E-002	1,000000000000000E+000	-8,2029717E-004	41	7,1709095E-005
2	1	0	1	0	2,123987891329764E+005	2,9533346E+000	2,9540982E+000	2,278277341715157E-002	1,000000000000000E+000	2,6897164E-003	41	6,7302550E-005
2	1	0	1	1	2,125414377552948E+005	2,9324496E+000	2,9332223E+000	8,196987747024292E-003	1,000000000000000E+000	4,9984478E-003	41	2,4043587E-005
2	1	0	1	1	2,126863349779653E+005	2,8165317E+000	2,8173242E+000	3,175338872803662E-003	1,000000000000000E+000	5,7441369E-003	42	8,9459591E-006
2	1	0	1	1	2,128312320006369E+005	2,7006142E+000	2,7013888E+000	1,053867255920715E-003	1,000000000000000E+000	6,0238298E-003	42	2,8469053E-006
2	0	0	1	1	2,129783776236582E+005	2,5828977E+000	2,5836926E+000	-1,179320160541116E-003	1,000000000000000E+000	5,9886947E-003	42	-3,0470007E-006
2	0	0	1	1	2,131232744463300E+005	2,4669800E+000	2,4677582E+000	-2,777363676499254E-003	1,000000000000000E+000	5,7022036E-003	42	-6,8538620E-006
2	0	0	1	1	2,132681714690006E+005	2,3510623E+000	2,3518698E+000	-4,719385233884682E-003	1,000000000000000E+000	5,1460853E-003	42	-1,1099380E-005
2	0	0	1	1	2,134130684916708E+005	2,2351446E+000	2,2359645E+000	-7,934864230722649E-003	1,000000000000000E+000	4,2325389E-003	42	-1,7742075E-005
2	0	0	1	1	2,135579656143438E+005	2,1192269E+000	2,1200557E+000	-1,325279622853498E-002	1,000000000000000E+000	2,7140474E-003	41	-2,8096665E-005
2	0	0	1	1	2,137028627370121E+005	2,0033090E+000	2,0041230E+000	-2,213819826052399E-002	2,000000000000000E+000	1,8319508E-004	41	-4,4367673E-005
2	0	0	1	1	2,138477598596853E+005	1,8873917E+000	1,8882191E+000	-3,619928207740680E-002	2,000000000000000E+000	-3,9820750E-003	41	-6,8352179E-005
2	0	0	1	1	2,139926569823550E+005	1,7714740E+000	1,7723198E+000	-5,985806869188434E-002	2,000000000000000E+000	-1,0809812E-002	41	-1,0608764E-004
2	0	0	1	1	2,141375542050260E+005	1,6555562E+000	1,6563839E+000	-9,902954957846577E-002	2,000000000000000E+000	-2,2122461E-002	41	-1,6403095E-004
2	0	0	1	1	2,142824513276970E+005	1,5396385E+000	1,5404823E+000	-1,632292894948058E-001	2,000000000000000E+000	-4,0669758E-002	40	-2,5145183E-004
2	0	0	1	1	2,144273485503667E+005	1,4237210E+000	1,4245524E+000	-2,554139077700022E-001	2,000000000000000E+000	-7,1393594E-002	40	-3,6385050E-004
2	0	0	1	1	2,145722456730399E+005	1,3078030E+000	1,3086457E+000	-2,745470413726712E-001	2,000000000000000E+000	-1,1046514E-001	40	-3,5928481E-004
2	0	0	1	1	2,147171426957091E+005	1,1918854E+000	1,1927551E+000	-2,555752269660916E-001	2,000000000000000E+000	-1,4918649E-001	40	-3,0483864E-004
2	0	0	1	1	2,148620399183803E+005	1,0759677E+000	1,0768391E+000	-2,262791942444995E-001	2,000000000000000E+000	-1,8409276E-001	40	-2,4366628E-004
2	0	0	1	1	2,150051887407772E+005	1,0384942E+000	1,0393537E+000	-1,548421768708494E-001	2,000000000000000E+000	-2,1331097E-001	40	-1,6093580E-004
2	0	0	1	1	2,151500859634485E+005	1,1544120E+000	1,1553061E+000	-9,201016795260042E-002	2,000000000000000E+000	-2,3052827E-001	40	-1,0629991E-004
2	0	0	1	1	2,152949831861192E+005	1,2703298E+000	1,2711447E+000	-5,851744054653751E-002	2,000000000000000E+000	-2,4125433E-001	40	-7,4384137E-005
2	0	0	1	1	2,154398804087890E+005	1,3862474E+000	1,3870797E+000	-3,019336544420376E-002	2,000000000000000E+000	-2,4770190E-001	41	-4,1880605E-005
2	1	0	1	1	2,155849026314821E+005	1,5022651E+000	1,5031080E+000	6,199221680313442E-003	2,000000000000000E+000	-2,4959140E-001	42	9,3180997E-006
2	1	0	1	1	2,157297998541505E+005	1,6181828E+000	1,6190393E+000	7,521862576652677E-002	2,000000000000000E+000	-2,4461587E-001	41	1,2178191E-004
2	1	0	1	1	2,158746970768231E+005	1,7341005E+000	1,7349306E+000	2,711904605280728E-001	2,000000000000000E+000	-2,2054571E-001	40	4,7049663E-004
2	1	0	1	1	2,160195942994932E+005	1,8500180E+000	1,8508638E+000	4,671766551026213E-001	2,000000000000000E+000	-1,6523856E-001	40	8,6468039E-004
2	1	0	1	1	2,161644916221644E+005	1,9659361E+000	1,9667337E+000	3,832922266133404E-001	2,000000000000000E+000	-9,9913649E-002	40	7,5383374E-004
2	1	0	1	1	2,163093890448352E+005	2,0818536E+000	2,0826507E+000	2,023548736015757E-001	2,000000000000000E+000	-5,8395185E-002	40	4,2143452E-004
2	1	0	1	1	2,164542861675047E+005	2,1977713E+000	2,1985509E+000	1,078269301742876E-001	2,000000000000000E+000	-3,6819853E-002	40	2,3706300E-004
2	1	0	1	1	2,165991833901783E+005	2,3136885E+000	2,3144679E+000	6,738646416471267E-002	2,000000000000000E+000	-2,4510019E-002	40	1,5596380E-004
2	1	0	1	1	2,167440807128472E+005	2,4296069E+000	2,4303875E+000	4,860374264382072E-002	2,000000000000000E+000	-1,6250942E-002	40	1,1812593E-004
2	1	0	1	1	2,168891030355385E+005	2,5456240E+000	2,5463979E+000	3,773497373465123E-002	2,000000000000000E+000	-1,0019437E-002	41	9,6088261E-005
2	1	0	1	1	2,170340000582089E+005	2,6615419E+000	2,6623058E+000	3,080604380567797E-002	2,000000000000000E+000	-5,0804866E-003	41	8,2015111E-005
2	1	0	1	1	2,171788972808793E+005	2,7774594E+000	2,7782514E+000	2,589072543444754E-002	2,000000000000000E+000	-1,0116448E-003	41	7,1930946E-005
2	1	0	1	1	2,173237945035510E+005	2,8933771E+000	2,8941619E+000	2,416027292859246E-002	2,000000000000000E+000	2,6459813E-003	41	6,9923743E-005
2	1	0	1	0	2,174664433258688E+005	2,9924068E+000	2,9931741E+000	1,614481433708323E-002	2,000000000000000E+000	5,8951634E-003	41	4,8324240E-005
2	1	0	1	0	2,176113404485416E+005	2,8764894E+000	2,8772631E+000	5,332626706502086E-003	2,000000000000000E+000	7,2107380E-003	41	1,5343370E-005
2	1	0	1	0	2,177562376712100E+005	2,7605715E+000	2,7613580E+000	2,183615034430979E-003	2,000000000000000E+000	7,7038300E-003	42	6,0297430E-006
2	1	0	1	0	2,179027583941366E+005	2,6433549E+000	2,6441565E+000	2,551012205310569E-005	2,000000000000000E+000	7,8566801E-003	43	6,7452753E-008
2	0	0	1	0	2,180484048169247E+005	2,5268376E+000	2,5276160E+000	-1,711834995860598E-003	2,000000000000000E+000	7,6961676E-003	42	-4,3268615E-006
2	0	0	1	0	2,181933021395947E+005	2,4109201E+000	2,4117105E+000	-3,636275391601856E-003	2,000000000000000E+000	7,2909063E-003	42	-8,7696435E-006
2	0	0	1	0	2,183381992622677E+005	2,2950022E+000	2,2957819E+000	-6,063379989340784E-003	2,000000000000000E+000	6,5900902E-003	42	-1,3920197E-005
2	0	0	1	0	2,184830960849365E+005	2,1790845E+000	2,1798565E+000	-1,019722560737035E-002	2,000000000000000E+000	5,4183505E-003	41	-2,2228489E-005
2	0	0	1	0	2,186279933076082E+005	2,0631666E+000	2,0639513E+000	-1,718946740180518E-002	2,000000000000000E+000	3,4585849E-003	41	-3,5478224E-005
2	0	0	0	0	2,186333634084463E+005	2,0588205E+000	2,0596516E+000	-1,779103618879663E-002	2,000000000000000E+000	3,3647558E-003	41	-3,6643338E-005