File: Dati/210416/CV_LTO-CB_08_CV_C05.mpt
EC-Lab ASCII FILE
Nb header lines : 57

Cyclic Voltammetry

Run on channel : 5 (SN 6809)
User : Seelab
Electrode connection : standard
Ewe ctrl range : min = 0,00 V, max = 5,00 V
Ewe,I filtering : 50 kHz
Safety Limits :
	Do not start on E overload
Channel : Grounded
Acquisition started on : 04/16/2021 18:38:45
Saved on :
	File : CV_LTO-CB_08_CV_C05.mpr
	Directory : C:\Users\labsuperfici\Desktop\Biologic\Users\Prisca Viviani\210416\
	Host : 10.78.33.0
Device : VSP-300 (SN 0638)
Address : USB
EC-Lab for windows v11.31 (software)
Internet server v11.30 (firmware)
Command interpretor v11.31 (firmware)
Electrode material :
Initial state :
Electrolyte :
Comments :
Cable : standard
Reference electrode : SCE Saturated Calomel Electrode (0,241 V)
Electrode surface area : 0,001 cm²
Characteristic mass : 0,001 g
Equivalent Weight : 0,000 g/eq.
Density : 0,000 g/cm3
Cycle Definition : Charge/Discharge alternance
Ei (V)              0,000
vs.                 Eoc
dE/dt               0,700
dE/dt unit          mV/s
E1 (V)              1,000
vs.                 Ref
Step percent        50
N                   10
E range min (V)     0,000
E range max (V)     5,000
I Range             Auto
I Range min         Unset
I Range max         Unset
I Range init        Unset
Bandwidth           8
E2 (V)              3,000
vs.                 Ref
nc cycles           1
Reverse Scan        1
Ef (V)              0,000
vs.                 Eoc

mode	ox/red	error	control changes	counter inc.	time/s	control/V	Ewe/V	<I>/mA	cycle number	(Q-Qo)/C	I Range	P/W
2	0	0	1	0	1,972049096557135E+005	2,0588205E+000	2,0594380E+000	-1,583854481577873E-002	1,000000000000000E+000	0,0000000E+000	41	-3,2618500E-005
2	0	0	1	0	1,973698639815236E+005	1,9433521E+000	1,9440506E+000	-2,631977531086049E-002	1,000000000000000E+000	-3,3677507E-003	41	-5,1166975E-005
2	0	0	1	0	1,975354607074335E+005	1,8274342E+000	1,8281299E+000	-4,372576585316298E-002	1,000000000000000E+000	-9,0675177E-003	41	-7,9936377E-005
2	0	0	1	0	1,977010573333437E+005	1,7115166E+000	1,7122389E+000	-7,275609788186699E-002	1,000000000000000E+000	-1,8533099E-002	41	-1,2457582E-004
2	0	0	1	0	1,978666540592536E+005	1,5955988E+000	1,5962653E+000	-1,191875524127499E-001	1,000000000000000E+000	-3,4152959E-002	40	-1,9025496E-004
2	0	0	1	0	1,980322506851619E+005	1,4796811E+000	1,4803725E+000	-2,056171511218987E-001	1,000000000000000E+000	-6,0319655E-002	40	-3,0438998E-004
2	0	0	1	0	1,981978475110712E+005	1,3637635E+000	1,3644642E+000	-2,604141634217996E-001	1,000000000000000E+000	-1,0033238E-001	40	-3,5532578E-004
2	0	0	1	0	1,983634441369809E+005	1,2478456E+000	1,2485446E+000	-2,558160739091402E-001	1,000000000000000E+000	-1,4362155E-001	40	-3,1939778E-004
2	0	0	1	0	1,985290407628920E+005	1,1319281E+000	1,1326623E+000	-2,276097000453494E-001	1,000000000000000E+000	-1,8379803E-001	40	-2,5780493E-004
2	0	0	1	0	1,986946374888010E+005	1,0160104E+000	1,0167357E+000	-1,998306300070603E-001	1,000000000000000E+000	-2,1907707E-001	40	-2,0317493E-004
2	0	0	1	0	1,988582362143968E+005	1,0984517E+000	1,0991939E+000	-1,061814551793545E-001	1,000000000000000E+000	-2,4319842E-001	40	-1,1671401E-004
2	0	0	1	0	1,990238330403059E+005	1,2143694E+000	1,2151026E+000	-6,550664333001044E-002	1,000000000000000E+000	-2,5706196E-001	40	-7,9597288E-005
2	0	0	1	0	1,991894298662166E+005	1,3302873E+000	1,3309796E+000	-3,900111758844066E-002	1,000000000000000E+000	-2,6563910E-001	41	-5,1909690E-005
2	0	0	1	0	1,993550266921269E+005	1,4462049E+000	1,4469265E+000	-1,023977697827229E-002	1,000000000000000E+000	-2,6980618E-001	41	-1,4816204E-005
2	1	0	1	0	1,995206235180360E+005	1,5621226E+000	1,5628381E+000	3,204798964427202E-002	1,000000000000000E+000	-2,6829851E-001	41	5,0085819E-005
2	1	0	1	0	1,996862204439447E+005	1,6780405E+000	1,6787913E+000	1,600443377662253E-001	1,000000000000000E+000	-2,5458720E-001	40	2,6868103E-004
2	1	0	1	0	1,998518171698540E+005	1,7939578E+000	1,7946885E+000	3,851831310087803E-001	1,000000000000000E+000	-2,0978929E-001	40	6,9128373E-004
2	1	0	1	0	2,000174139957642E+005	1,9098756E+000	1,9105917E+000	4,362491356872092E-001	1,000000000000000E+000	-1,3694598E-001	40	8,3349401E-004
2	1	0	1	0	2,001830109216748E+005	2,0257931E+000	2,0265298E+000	2,568649978612754E-001	1,000000000000000E+000	-7,9009414E-002	40	5,2054459E-004
2	1	0	1	0	2,003486079475840E+005	2,1417108E+000	2,1423938E+000	1,309978397687768E-001	1,000000000000000E+000	-4,8076119E-002	40	2,8064896E-004
2	1	0	1	0	2,005142048734924E+005	2,2576287E+000	2,2583070E+000	7,461543171180640E-002	1,000000000000000E+000	-3,1721771E-002	40	1,6850456E-004
2	1	0	1	0	2,006798015994020E+005	2,3735464E+000	2,3742301E+000	5,004041141232962E-002	1,000000000000000E+000	-2,1629946E-002	40	1,1880745E-004
2	1	0	1	0	2,008455411253357E+005	2,4895639E+000	2,4902403E+000	3,774199181762372E-002	1,000000000000000E+000	-1,4433753E-002	41	9,3986630E-005
2	1	0	1	0	2,010111380512447E+005	2,6054816E+000	2,6061392E+000	2,971017688089284E-002	1,000000000000000E+000	-8,8791167E-003	41	7,7428856E-005
2	1	0	1	0	2,011767349771537E+005	2,7213995E+000	2,7220840E+000	2,434935118942527E-002	1,000000000000000E+000	-4,3852716E-003	41	6,6280983E-005
2	1	0	1	0	2,013423317030626E+005	2,8373175E+000	2,8380125E+000	2,242864455420837E-002	1,000000000000000E+000	-5,5798143E-004	41	6,3652769E-005
2	1	0	1	0	2,015079285289720E+005	2,9532351E+000	2,9539173E+000	2,030122808429727E-002	1,000000000000000E+000	3,0127182E-003	41	5,9968148E-005
2	1	0	1	1	2,016710984545019E+005	2,9324493E+000	2,9331203E+000	7,340319770566872E-003	1,000000000000000E+000	5,3708917E-003	41	2,1530041E-005
2	1	0	1	1	2,018366951804124E+005	2,8165321E+000	2,8172202E+000	2,843673719062266E-003	1,000000000000000E+000	6,1294399E-003	42	8,0112550E-006
2	1	0	1	1	2,020022916063224E+005	2,7006142E+000	2,7013011E+000	9,211132342006861E-004	1,000000000000000E+000	6,4107422E-003	42	2,4882042E-006
2	0	0	1	1	2,021690302324103E+005	2,5838969E+000	2,5845950E+000	-1,072188643820728E-003	1,000000000000000E+000	6,3685388E-003	42	-2,7711733E-006
2	0	0	1	1	2,023346268583187E+005	2,4679792E+000	2,4686646E+000	-2,505715677407235E-003	1,000000000000000E+000	6,0710609E-003	42	-6,1857718E-006
2	0	0	1	1	2,025002234842284E+005	2,3520615E+000	2,3527341E+000	-4,264748681105830E-003	1,000000000000000E+000	5,4955906E-003	42	-1,0033819E-005
2	0	0	1	1	2,026658199101388E+005	2,2361441E+000	2,2368529E+000	-7,205362653878597E-003	1,000000000000000E+000	4,5461310E-003	42	-1,6117336E-005
2	0	0	1	1	2,028314163360489E+005	2,1202264E+000	2,1209145E+000	-1,216484190403169E-002	1,000000000000000E+000	2,9593357E-003	41	-2,5800589E-005
2	0	0	1	1	2,029970129619583E+005	2,0043085E+000	2,0049903E+000	-2,045954579036591E-002	2,000000000000000E+000	2,9423280E-004	41	-4,1021191E-005
2	0	0	1	1	2,031626097878668E+005	1,8883908E+000	1,8890847E+000	-3,369769448274609E-002	2,000000000000000E+000	-4,1211233E-003	41	-6,3657797E-005
2	0	0	1	1	2,033282063137759E+005	1,7724732E+000	1,7731887E+000	-5,587946447868131E-002	2,000000000000000E+000	-1,1399749E-002	41	-9,9084835E-005
2	0	0	1	1	2,034938032396855E+005	1,6565555E+000	1,6572526E+000	-9,247942964576145E-002	2,000000000000000E+000	-2,3474036E-002	41	-1,5326178E-004
2	0	0	1	1	2,036593998655966E+005	1,5406380E+000	1,5413383E+000	-1,541798015560074E-001	2,000000000000000E+000	-4,3359440E-002	40	-2,3764324E-004
2	0	0	1	1	2,038249965915061E+005	1,4247198E+000	1,4254210E+000	-2,456736339917596E-001	2,000000000000000E+000	-7,6970570E-002	40	-3,5018835E-004
2	0	0	1	1	2,039905931174149E+005	1,3088025E+000	1,3095299E+000	-2,632958278091089E-001	2,000000000000000E+000	-1,1986517E-001	40	-3,4479375E-004
2	0	0	1	1	2,041561898433235E+005	1,1928847E+000	1,1935885E+000	-2,426575431053135E-001	2,000000000000000E+000	-1,6209580E-001	40	-2,8963326E-004
2	0	0	1	1	2,043217865692335E+005	1,0769670E+000	1,0777181E+000	-2,121492356277441E-001	2,000000000000000E+000	-1,9973931E-001	40	-2,2863707E-004
2	0	0	1	1	2,044853850948317E+005	1,0374950E+000	1,0382200E+000	-1,435364037067435E-001	2,000000000000000E+000	-2,3092271E-001	40	-1,4902237E-004
2	0	0	1	1	2,046509819207413E+005	1,1534128E+000	1,1541585E+000	-8,326828955301546E-002	2,000000000000000E+000	-2,4895796E-001	40	-9,6104799E-005
2	0	0	1	1	2,048165786466498E+005	1,2693305E+000	1,2700703E+000	-5,186569317957142E-002	2,000000000000000E+000	-2,5993860E-001	40	-6,5873079E-005
2	0	0	1	1	2,049821754725589E+005	1,3852482E+000	1,3859653E+000	-2,596926176549830E-002	2,000000000000000E+000	-2,6640701E-001	41	-3,5992496E-005
2	1	0	1	1	2,051477722984683E+005	1,5011659E+000	1,5019158E+000	7,391475586677283E-003	2,000000000000000E+000	-2,6810262E-001	42	1,1101374E-005
2	1	0	1	1	2,053133691243795E+005	1,6170835E+000	1,6178209E+000	7,270736722291837E-002	2,000000000000000E+000	-2,6253885E-001	41	1,1762750E-004
2	1	0	1	1	2,054789659502890E+005	1,7330012E+000	1,7337226E+000	2,676599663173058E-001	2,000000000000000E+000	-2,3564409E-001	40	4,6404812E-004
2	1	0	1	1	2,056445628761977E+005	1,8489187E+000	1,8496611E+000	4,568801700423819E-001	2,000000000000000E+000	-1,7310111E-001	40	8,4507349E-004
2	1	0	1	1	2,058101597021068E+005	1,9648366E+000	1,9655415E+000	3,529050607048863E-001	2,000000000000000E+000	-1,0232303E-001	40	6,9364952E-004
2	1	0	1	1	2,059757566280169E+005	2,0807543E+000	2,0814466E+000	1,840113007121298E-001	2,000000000000000E+000	-5,8964573E-002	40	3,8300970E-004
2	1	0	1	1	2,061413535539275E+005	2,1966720E+000	2,1973932E+000	9,682722984698455E-002	2,000000000000000E+000	-3,6683574E-002	40	2,1276750E-004
2	1	0	1	1	2,063069504798371E+005	2,3125896E+000	2,3132794E+000	6,012711640672572E-002	2,000000000000000E+000	-2,4083827E-002	40	1,3909081E-004
2	1	0	1	1	2,064726899057673E+005	2,4286072E+000	2,4293208E+000	4,295477544196458E-002	2,000000000000000E+000	-1,5689725E-002	41	1,0435093E-004
2	1	0	1	1	2,066382867316767E+005	2,5445249E+000	2,5452254E+000	3,318594539409037E-002	2,000000000000000E+000	-9,4054826E-003	41	8,4465712E-005
2	1	0	1	1	2,068038836575882E+005	2,6604428E+000	2,6611307E+000	2,691656767747450E-002	2,000000000000000E+000	-4,4543031E-003	41	7,1628507E-005
2	1	0	1	1	2,069694805834973E+005	2,7763605E+000	2,7770426E+000	2,259788984152938E-002	2,000000000000000E+000	-3,9844826E-004	41	6,2755302E-005
2	1	0	1	1	2,071350773094065E+005	2,8922782E+000	2,8929501E+000	2,125926687518792E-002	2,000000000000000E+000	3,2716759E-003	41	6,1501996E-005
2	1	0	1	0	2,072982472349368E+005	2,9934065E+000	2,9941049E+000	1,429925184352604E-002	2,000000000000000E+000	6,5413984E-003	41	4,2813459E-005
2	1	0	1	0	2,074638440608457E+005	2,8774886E+000	2,8781879E+000	4,457738368292011E-003	2,000000000000000E+000	7,8337817E-003	42	1,2830209E-005
2	1	0	1	0	2,076294406867547E+005	2,7615712E+000	2,7622819E+000	1,743820337654810E-003	2,000000000000000E+000	8,2943309E-003	42	4,8169231E-006
2	0	0	1	0	2,077988204132570E+005	2,6430049E+000	2,6437156E+000	-1,538365023903068E-004	2,000000000000000E+000	8,4196823E-003	43	-4,0669997E-007
2	0	0	1	0	2,079652020392892E+005	2,5265374E+000	2,5272639E+000	-1,659183230649411E-003	2,000000000000000E+000	8,2286308E-003	42	-4,1931939E-006
2	0	0	1	0	2,081307984651980E+005	2,4106200E+000	2,4113343E+000	-3,373329019066906E-003	2,000000000000000E+000	7,7934256E-003	42	-8,1342241E-006
2	0	0	1	0	2,082963948911075E+005	2,2947021E+000	2,2954092E+000	-5,545145357656554E-003	2,000000000000000E+000	7,0558619E-003	42	-1,2728377E-005
2	0	0	1	0	2,084619913170170E+005	2,1787846E+000	2,1794899E+000	-9,362919283954873E-003	2,000000000000000E+000	5,8292006E-003	42	-2,0406387E-005
2	0	0	1	0	2,086275883429279E+005	2,0628667E+000	2,0635819E+000	-1,581384488074611E-002	2,000000000000000E+000	3,7728092E-003	41	-3,2633165E-005
2	0	0	1	0	2,086332970438204E+005	2,0588205E+000	2,0595601E+000	-1,634738273918629E-002	2,000000000000000E+000	3,6810704E-003	41	-3,3668417E-005