File: Dati/210416/CV_LTO-CB_07_CV_C05.mpt
EC-Lab ASCII FILE
Nb header lines : 57

Cyclic Voltammetry

Run on channel : 5 (SN 6809)
User : Seelab
Electrode connection : standard
Ewe ctrl range : min = 0,00 V, max = 5,00 V
Ewe,I filtering : 50 kHz
Safety Limits :
	Do not start on E overload
Channel : Grounded
Acquisition started on : 04/16/2021 18:38:45
Saved on :
	File : CV_LTO-CB_07_CV_C05.mpr
	Directory : C:\Users\labsuperfici\Desktop\Biologic\Users\Prisca Viviani\210416\
	Host : 10.78.33.0
Device : VSP-300 (SN 0638)
Address : USB
EC-Lab for windows v11.31 (software)
Internet server v11.30 (firmware)
Command interpretor v11.31 (firmware)
Electrode material :
Initial state :
Electrolyte :
Comments :
Cable : standard
Reference electrode : SCE Saturated Calomel Electrode (0,241 V)
Electrode surface area : 0,001 cm²
Characteristic mass : 0,001 g
Equivalent Weight : 0,000 g/eq.
Density : 0,000 g/cm3
Cycle Definition : Charge/Discharge alternance
Ei (V)              0,000
vs.                 Eoc
dE/dt               0,600
dE/dt unit          mV/s
E1 (V)              1,000
vs.                 Ref
Step percent        50
N                   10
E range min (V)     0,000
E range max (V)     5,000
I Range             Auto
I Range min         Unset
I Range max         Unset
I Range init        Unset
Bandwidth           8
E2 (V)              3,000
vs.                 Ref
nc cycles           1
Reverse Scan        1
Ef (V)              0,000
vs.                 Eoc

mode	ox/red	error	control changes	counter inc.	time/s	control/V	Ewe/V	<I>/mA	cycle number	(Q-Qo)/C	I Range	P/W
2	0	0	0	0	1,838715361695513E+005	2,0588205E+000	2,0595143E+000	-1,338431984186172E-002	1,000000000000000E+000	0,0000000E+000	41	-2,7565198E-005
2	0	0	1	0	1,840639827996630E+005	1,9433520E+000	1,9440714E+000	-2,318170729330504E-002	1,000000000000000E+000	-3,4402532E-003	41	-4,5066896E-005
2	0	0	1	0	1,842571790298908E+005	1,8274342E+000	1,8281211E+000	-3,886985860090941E-002	1,000000000000000E+000	-9,3311463E-003	41	-7,1058806E-005
2	0	0	1	0	1,844503753601186E+005	1,7115165E+000	1,7122382E+000	-6,491432266776720E-002	1,000000000000000E+000	-1,9164905E-002	41	-1,1114878E-004
2	0	0	1	0	1,846435715903472E+005	1,5955988E+000	1,5962613E+000	-1,063782759437926E-001	1,000000000000000E+000	-3,5410989E-002	40	-1,6980752E-004
2	0	0	1	0	1,848367678205736E+005	1,4796811E+000	1,4803712E+000	-1,856763551564637E-001	1,000000000000000E+000	-6,2815927E-002	40	-2,7486993E-004
2	0	0	1	0	1,850299641508032E+005	1,3637632E+000	1,3644595E+000	-2,363018108119096E-001	1,000000000000000E+000	-1,0499793E-001	40	-3,2242425E-004
2	0	0	1	0	1,852231602810286E+005	1,2478459E+000	1,2485479E+000	-2,331712426387491E-001	1,000000000000000E+000	-1,5097782E-001	40	-2,9112547E-004
2	0	0	1	0	1,854163565112585E+005	1,1319281E+000	1,1326675E+000	-2,058890535402269E-001	1,000000000000000E+000	-1,9356856E-001	40	-2,3320384E-004
2	0	0	1	0	1,856095528414850E+005	1,0160103E+000	1,0167309E+000	-1,788877149545138E-001	1,000000000000000E+000	-2,3062201E-001	40	-1,8188066E-004
2	0	0	1	0	1,858004179713498E+005	1,0984519E+000	1,0991672E+000	-9,343748093097926E-002	1,000000000000000E+000	-2,5564429E-001	40	-1,0270342E-004
2	0	0	1	0	1,859936142015755E+005	1,2143695E+000	1,2150873E+000	-5,661062046771737E-002	1,000000000000000E+000	-2,6975140E-001	40	-6,8786845E-005
2	0	0	1	0	1,861868106318045E+005	1,3302872E+000	1,3309904E+000	-3,312113881527475E-002	1,000000000000000E+000	-2,7834210E-001	41	-4,4083918E-005
2	0	0	1	0	1,863800070620324E+005	1,4462049E+000	1,4468927E+000	-7,806812932184076E-003	1,000000000000000E+000	-2,8238866E-001	41	-1,1295621E-005
2	1	0	1	0	1,865732034922600E+005	1,5621226E+000	1,5628488E+000	2,958365596813822E-002	1,000000000000000E+000	-2,8059560E-001	41	4,6234782E-005
2	1	0	1	0	1,867664000224886E+005	1,6780401E+000	1,6787794E+000	1,456915706797786E-001	1,000000000000000E+000	-2,6603618E-001	40	2,4458399E-004
2	1	0	1	0	1,869595964527149E+005	1,7939579E+000	1,7946792E+000	3,580418944067763E-001	1,000000000000000E+000	-2,1777673E-001	40	6,4257032E-004
2	1	0	1	0	1,871527928829449E+005	1,9098755E+000	1,9106191E+000	3,941444098288409E-001	1,000000000000000E+000	-1,3958891E-001	40	7,5305987E-004
2	1	0	1	0	1,873459893131703E+005	2,0257931E+000	2,0265143E+000	2,257932373777898E-001	1,000000000000000E+000	-7,9431944E-002	40	4,5757322E-004
2	1	0	1	0	1,875391859433993E+005	2,1417108E+000	2,1423988E+000	1,130357427565944E-001	1,000000000000000E+000	-4,7977623E-002	40	2,4216765E-004
2	1	0	1	0	1,877323825736279E+005	2,2576287E+000	2,2583332E+000	6,426218812183254E-002	1,000000000000000E+000	-3,1538382E-002	40	1,4512544E-004
2	1	0	1	0	1,879257457038821E+005	2,3736463E+000	2,3743470E+000	4,303275810147385E-002	1,000000000000000E+000	-2,1388311E-002	41	1,0217470E-004
2	1	0	1	0	1,881189422341078E+005	2,4895639E+000	2,4902623E+000	3,251968755408174E-002	1,000000000000000E+000	-1,4159497E-002	41	8,0982551E-005
2	1	0	1	0	1,883121390643369E+005	2,6054816E+000	2,6061857E+000	2,553027517283936E-002	1,000000000000000E+000	-8,5877459E-003	41	6,6536639E-005
2	1	0	1	0	1,885053356945654E+005	2,7213993E+000	2,7220814E+000	2,086927852734555E-002	1,000000000000000E+000	-4,0908456E-003	41	5,6807876E-005
2	1	0	1	0	1,886985323247925E+005	2,8373170E+000	2,8380010E+000	1,947450312674787E-002	1,000000000000000E+000	-2,4297879E-004	41	5,5268658E-005
2	1	0	1	0	1,888917288550218E+005	2,9532349E+000	2,9539325E+000	1,748048934458163E-002	1,000000000000000E+000	3,3691935E-003	41	5,1636187E-005
2	1	0	1	1	1,890820937848051E+005	2,9324496E+000	2,9331410E+000	6,155051539328243E-003	1,000000000000000E+000	5,7305451E-003	41	1,8053634E-005
2	1	0	1	1	1,892752900150334E+005	2,8165319E+000	2,8172410E+000	2,297548869816889E-003	1,000000000000000E+000	6,4631337E-003	42	6,4727487E-006
2	1	0	1	1	1,894684860452607E+005	2,7006145E+000	2,7013240E+000	6,912389634839723E-004	1,000000000000000E+000	6,7206426E-003	42	1,8672604E-006
2	0	0	1	1	1,896620156755409E+005	2,5844967E+000	2,5851660E+000	-1,018577170881552E-003	1,000000000000000E+000	6,6578253E-003	42	-2,6331911E-006
2	0	0	1	1	1,898552118057692E+005	2,4685791E+000	2,4692640E+000	-2,242645694567728E-003	1,000000000000000E+000	6,3407156E-003	42	-5,5376845E-006
2	0	0	1	1	1,900484079359963E+005	2,3526611E+000	2,3533244E+000	-3,801928943825403E-003	1,000000000000000E+000	5,7420428E-003	42	-8,9471723E-006
2	0	0	1	1	1,902416041662251E+005	2,2367435E+000	2,2374244E+000	-6,355046842752683E-003	1,000000000000000E+000	4,7626034E-003	42	-1,4218936E-005
2	0	0	1	1	1,904348004964509E+005	2,1208253E+000	2,1215272E+000	-1,071721841322548E-002	1,000000000000000E+000	3,1311372E-003	41	-2,2736871E-005
2	0	0	1	1	1,906258316263400E+005	2,0062072E+000	2,0069206E+000	-1,798357036138068E-002	2,000000000000000E+000	4,2682668E-004	41	-3,6091598E-005
2	0	0	1	1	1,908190280565699E+005	1,8902894E+000	1,8909838E+000	-2,979530141788667E-002	2,000000000000000E+000	-4,1131340E-003	41	-5,6342433E-005
2	0	0	1	1	1,910122240867959E+005	1,7743719E+000	1,7750783E+000	-4,958475084620867E-002	2,000000000000000E+000	-1,1633768E-002	41	-8,8016815E-005
2	0	0	1	1	1,912054205170247E+005	1,6584542E+000	1,6591504E+000	-8,221975629213318E-002	2,000000000000000E+000	-2,4145838E-002	41	-1,3641494E-004
2	0	0	1	1	1,913986167472526E+005	1,5425364E+000	1,5432199E+000	-1,380855105853254E-001	2,000000000000000E+000	-4,4831991E-002	40	-2,1309631E-004
2	0	0	1	1	1,915918128774803E+005	1,4266189E+000	1,4273133E+000	-2,242535326466604E-001	2,000000000000000E+000	-8,0371663E-002	40	-3,2008006E-004
2	0	0	1	1	1,917850092077088E+005	1,3107011E+000	1,3114043E+000	-2,403433950462988E-001	2,000000000000000E+000	-1,2601197E-001	40	-3,1518738E-004
2	0	0	1	1	1,919782054379354E+005	1,1947834E+000	1,1955231E+000	-2,203534629069734E-001	2,000000000000000E+000	-1,7090452E-001	40	-2,6343766E-004
2	0	0	1	1	1,921714016681649E+005	1,0788656E+000	1,0795825E+000	-1,907450327099016E-001	2,000000000000000E+000	-2,1060142E-001	40	-2,0592500E-004
2	0	0	1	1	1,923621001980007E+005	1,0354965E+000	1,0362159E+000	-1,284628239383410E-001	2,000000000000000E+000	-2,4322753E-001	40	-1,3311522E-004
2	0	0	1	1	1,925552964282287E+005	1,1514143E+000	1,1521091E+000	-7,278341565557378E-002	2,000000000000000E+000	-2,6183939E-001	40	-8,3854437E-005
2	0	0	1	1	1,927484929584567E+005	1,2673320E+000	1,2680271E+000	-4,465403774926820E-002	2,000000000000000E+000	-2,7294061E-001	41	-5,6622528E-005
2	0	0	1	1	1,929416892886841E+005	1,3832495E+000	1,3839601E+000	-2,183879127661856E-002	2,000000000000000E+000	-2,7937365E-001	41	-3,0224017E-005
2	1	0	1	1	1,931348857189133E+005	1,4991673E+000	1,4999133E+000	7,334973270161353E-003	2,000000000000000E+000	-2,8093857E-001	42	1,1001825E-005
2	1	0	1	1	1,933280822491390E+005	1,6150850E+000	1,6158105E+000	6,465303705907921E-002	2,000000000000000E+000	-2,7509004E-001	41	1,0446706E-004
2	1	0	1	1	1,935212787793684E+005	1,7310028E+000	1,7317097E+000	2,457152214328255E-001	2,000000000000000E+000	-2,4669023E-001	40	4,2550743E-004
2	1	0	1	1	1,937144751095953E+005	1,8469203E+000	1,8475935E+000	4,224181576374413E-001	2,000000000000000E+000	-1,7901672E-001	40	7,8045705E-004
2	1	0	1	1	1,939076716398236E+005	1,9628383E+000	1,9635667E+000	3,149992140272611E-001	2,000000000000000E+000	-1,0399541E-001	40	6,1852194E-004
2	1	0	1	1	1,941008681700518E+005	2,0787556E+000	2,0794551E+000	1,610212161075776E-001	2,000000000000000E+000	-5,9248950E-002	40	3,3483640E-004
2	1	0	1	1	1,942940648002787E+005	2,1946735E+000	2,1953652E+000	8,399713419112897E-002	2,000000000000000E+000	-3,6610436E-002	40	1,8440439E-004
2	1	0	1	1	1,944872613305082E+005	2,3105912E+000	2,3112812E+000	5,206033287123873E-002	2,000000000000000E+000	-2,3867669E-002	40	1,2032607E-004
2	1	0	1	1	1,946806246607612E+005	2,4266088E+000	2,4273033E+000	3,713766225525494E-002	2,000000000000000E+000	-1,5401174E-002	41	9,0144371E-005
2	1	0	1	1	1,948738213909897E+005	2,5425265E+000	2,5432100E+000	2,862485040822177E-002	2,000000000000000E+000	-9,0667661E-003	41	7,2799005E-005
2	1	0	1	1	1,950670177212164E+005	2,6584439E+000	2,6591220E+000	2,316980250223967E-002	2,000000000000000E+000	-4,0871329E-003	41	6,1611332E-005
2	1	0	1	1	1,952602141514458E+005	2,7743616E+000	2,7750385E+000	1,943463257628926E-002	2,000000000000000E+000	-1,4036143E-005	41	5,3931853E-005
2	1	0	1	1	1,954534106816715E+005	2,8902795E+000	2,8909574E+000	1,850082158100735E-002	2,000000000000000E+000	3,6930612E-003	41	5,3485088E-005
2	1	0	1	0	1,956437758114585E+005	2,9954050E+000	2,9960754E+000	1,292721513251582E-002	2,000000000000000E+000	7,0209950E-003	41	3,8730912E-005
2	1	0	1	0	1,958369720416842E+005	2,8794870E+000	2,8801885E+000	3,868714097349388E-003	2,000000000000000E+000	8,3403680E-003	42	1,1142626E-005
2	1	0	1	0	1,960301682719141E+005	2,7635694E+000	2,7642529E+000	1,458003461131133E-003	2,000000000000000E+000	8,7974798E-003	42	4,0302903E-006
2	0	0	1	0	1,962243639022959E+005	2,6470523E+000	2,6477280E+000	-1,297737172114634E-004	2,000000000000000E+000	8,9150527E-003	43	-3,4360551E-007
2	0	0	1	0	1,964177267325511E+005	2,5310345E+000	2,5317178E+000	-1,453627737213064E-003	2,000000000000000E+000	8,7158084E-003	42	-3,6801753E-006
2	0	0	1	0	1,966109228627789E+005	2,4151170E+000	2,4157875E+000	-2,949221668021293E-003	2,000000000000000E+000	8,2701417E-003	42	-7,1246927E-006
2	0	0	1	0	1,968041189930071E+005	2,2991991E+000	2,2998908E+000	-4,843343988490755E-003	2,000000000000000E+000	7,5174738E-003	42	-1,1139162E-005
2	0	0	1	0	1,969973152232338E+005	2,1832817E+000	2,1839483E+000	-8,098830505524290E-003	2,000000000000000E+000	6,2736636E-003	42	-1,7687427E-005
2	0	0	1	0	1,971905117534637E+005	2,0673640E+000	2,0680468E+000	-1,374181142393249E-002	2,000000000000000E+000	4,1882661E-003	41	-2,8418710E-005
2	0	0	1	0	1,972046668556784E+005	2,0588205E+000	2,0594990E+000	-1,453284498803864E-002	2,000000000000000E+000	3,9882963E-003	41	-2,9930379E-005