File: Dati/201027/CV_LTO-C_Al_slurrymia_01_1mVs_09_CV_C03.mpt
EC-Lab ASCII FILE
Nb header lines : 63

Cyclic Voltammetry

Run on channel : 3 (SN 6807)
User :
Electrode connection : standard
Ewe ctrl range : min = 0,00 V, max = 5,00 V
Ewe,I filtering : 50 kHz
Safety Limits :
	Do not start on E overload
Channel : Grounded
Acquisition started on : 10/27/2020 18:19:16
Saved on :
	File : CV_LTO-C_Al_slurrymia_01_1mVs_09_CV_C03.mpr
	Directory : C:\Users\labsuperfici\Desktop\Biologic\Users\Prisca Viviani\201027\
	Host : 10.78.33.0
Device : VSP-300 (SN 0638)
Address : USB
EC-Lab for windows v11.31 (software)
Internet server v11.30 (firmware)
Command interpretor v11.31 (firmware)
Electrode material :
Initial state :
Electrolyte :
Comments :
Cable : standard
Reference electrode : SCE Saturated Calomel Electrode (0,241 V)
Electrode surface area : 0,001 cm²
Characteristic mass : 0,001 g
Equivalent Weight : 0,000 g/eq.
Density : 0,000 g/cm3
Cycle Definition : Charge/Discharge alternance
Ei (V)              0,000
vs.                 Eoc
dE/dt               0,900
dE/dt unit          mV/s
E1 (V)              1,000
vs.                 Ref
Step percent        50
N                   10
E range min (V)     0,000
E range max (V)     5,000
I Range             Auto
I Range min         Unset
I Range max         Unset
I Range init        Unset
Bandwidth           8
E2 (V)              3,000
vs.                 Ref
nc cycles           2
Reverse Scan        1
Ef (V)              0,000
vs.                 Eoc

Modify on : 10/28/2020 10:35
nc cycles           1

Modify on : 10/28/2020 10:37
E2 (V)              2,700

mode	ox/red	error	control changes	counter inc.	time/s	control/V	Ewe/V	<I>/mA	cycle number	(Q-Qo)/C	I Range	P/W
2	0	0	1	0	1,908165794561857E+005	1,8815254E+000	1,8809738E+000	-1,562061347067356E-002	1,000000000000000E+000	0,0000000E+000	41	-2,9381965E-005
2	0	0	1	0	1,909260348733098E+005	1,7830150E+000	1,7824235E+000	-2,136328871332144E-002	1,000000000000000E+000	-1,9795652E-003	41	-3,8078429E-005
2	0	0	1	0	1,910359899905147E+005	1,6840556E+000	1,6835030E+000	-3,019520663190205E-002	1,000000000000000E+000	-4,8165270E-003	41	-5,0833722E-005
2	0	0	1	0	1,911459452077197E+005	1,5850959E+000	1,5845547E+000	-7,172118941070704E-002	1,000000000000000E+000	-9,8581593E-003	41	-1,1364614E-004
2	0	0	1	0	1,912559004249237E+005	1,4861363E+000	1,4856253E+000	-3,829141532953735E-001	1,000000000000000E+000	-3,0693574E-002	40	-5,6886696E-004
2	0	0	1	0	1,913658555421282E+005	1,3871765E+000	1,3866450E+000	-3,941375825488835E-001	1,000000000000000E+000	-7,6971248E-002	40	-5,4652890E-004
2	0	0	1	0	1,914758107593306E+005	1,2882168E+000	1,2876594E+000	-2,915430361502390E-001	1,000000000000000E+000	-1,1443567E-001	40	-3,7540813E-004
2	0	0	1	0	1,915857659765342E+005	1,1892571E+000	1,1886641E+000	-2,239244568421481E-001	1,000000000000000E+000	-1,4252561E-001	40	-2,6617094E-004
2	0	0	1	0	1,916957210937373E+005	1,0902978E+000	1,0897000E+000	-1,825064353542345E-001	1,000000000000000E+000	-1,6470154E-001	40	-1,9887726E-004
2	0	0	1	0	1,918044552107505E+005	1,0075312E+000	1,0068971E+000	-1,444538920539364E-001	1,000000000000000E+000	-1,8317635E-001	40	-1,4545021E-004
2	0	0	1	0	1,919144104279531E+005	1,1064910E+000	1,1058849E+000	-7,896827986652843E-002	1,000000000000000E+000	-1,9469161E-001	40	-8,7329827E-005
2	0	0	1	0	1,920243656451576E+005	1,2054507E+000	1,2048264E+000	-5,039891202058899E-002	1,000000000000000E+000	-2,0164520E-001	40	-6,0721937E-005
2	0	0	1	0	1,921343208623622E+005	1,3044102E+000	1,3038265E+000	-3,141822177469056E-002	1,000000000000000E+000	-2,0606372E-001	41	-4,0963907E-005
2	0	0	1	0	1,922442760795667E+005	1,4033699E+000	1,4027841E+000	-1,572192580081005E-002	1,000000000000000E+000	-2,0863102E-001	41	-2,2054468E-005
2	1	0	1	0	1,923542312967705E+005	1,5023296E+000	1,5016600E+000	4,832131908095449E-003	1,000000000000000E+000	-2,0931917E-001	42	7,2562193E-006
2	1	0	1	0	1,924641866139733E+005	1,6012892E+000	1,6006505E+000	1,260401325133520E-001	1,000000000000000E+000	-2,0521064E-001	40	2,0174621E-004
2	1	0	1	0	1,925741418311769E+005	1,7002488E+000	1,6995518E+000	7,443823965980041E-001	1,000000000000000E+000	-1,6231111E-001	40	1,2651165E-003
2	1	0	1	0	1,926840971483793E+005	1,7992082E+000	1,7986238E+000	8,208612734528278E-001	1,000000000000000E+000	-4,1548211E-002	39	1,4764207E-003
2	1	0	1	0	1,927940524655841E+005	1,8981681E+000	1,8975258E+000	6,893601944568079E-002	1,000000000000000E+000	-1,5320200E-002	40	1,3080788E-004
2	1	0	1	0	1,929041187828067E+005	1,9972277E+000	1,9966067E+000	3,726394365220465E-002	1,000000000000000E+000	-9,7744940E-003	41	7,4401440E-005
2	1	0	1	0	1,930140741000115E+005	2,0961874E+000	2,0955644E+000	2,264888477214272E-002	1,000000000000000E+000	-6,5256204E-003	41	4,7462196E-005
2	1	0	1	0	1,931240292172139E+005	2,1951468E+000	2,1945384E+000	1,718686859835536E-002	1,000000000000000E+000	-4,2993589E-003	41	3,7717244E-005
2	1	0	1	0	1,932339846344173E+005	2,2941060E+000	2,2935047E+000	1,398924708801544E-002	1,000000000000000E+000	-2,5616453E-003	41	3,2084405E-005
2	1	0	1	0	1,933439398516207E+005	2,3930659E+000	2,3924890E+000	1,293405326909986E-002	1,000000000000000E+000	-1,0358320E-003	41	3,0944579E-005
2	1	0	1	0	1,934538951688237E+005	2,4920254E+000	2,4914310E+000	1,248819953814739E-002	1,000000000000000E+000	4,0853431E-004	41	3,1113486E-005
2	1	0	1	0	1,935638503860286E+005	2,5909853E+000	2,5904064E+000	1,270998208254592E-002	1,000000000000000E+000	1,8384706E-003	41	3,2924017E-005
2	1	0	1	0	1,936738057032325E+005	2,6899450E+000	2,6893413E+000	1,379107790822016E-002	1,000000000000000E+000	3,3357532E-003	41	3,7088914E-005
2	1	0	1	1	1,937822062201917E+005	2,6124766E+000	2,6119020E+000	1,794868293661486E-003	1,000000000000000E+000	3,9294139E-003	42	4,6880200E-006
2	0	0	1	1	1,938921614373960E+005	2,5135169E+000	2,5129588E+000	-8,103299089990360E-004	1,000000000000000E+000	3,9250986E-003	42	-2,0363257E-006
2	0	0	1	1	1,940021164546008E+005	2,4145575E+000	2,4140339E+000	-2,428160171132863E-003	1,000000000000000E+000	3,6999984E-003	42	-5,8616611E-006
2	0	0	1	1	1,941120715718046E+005	2,3155973E+000	2,3150682E+000	-3,729516855165092E-003	1,000000000000000E+000	3,3175326E-003	42	-8,6340860E-006
2	0	0	1	1	1,942220266890097E+005	2,2166383E+000	2,2161148E+000	-5,098830255718487E-003	1,000000000000000E+000	2,7913467E-003	42	-1,1299593E-005
2	0	0	1	1	1,943319819062124E+005	2,1176786E+000	2,1171780E+000	-6,846545460317474E-003	1,000000000000000E+000	2,0963363E-003	42	-1,4495356E-005
2	0	0	1	1	1,944419370234157E+005	2,0187190E+000	2,0181148E+000	-9,113348840567512E-003	1,000000000000000E+000	1,1824690E-003	41	-1,8391784E-005
2	0	0	1	1	1,945518922406189E+005	1,9197592E+000	1,9191800E+000	-1,284081620831665E-002	1,000000000000000E+000	-5,2698128E-005	41	-2,4643838E-005
2	0	0	1	1	1,946606256576320E+005	1,8218992E+000	1,8213015E+000	-1,866278582350989E-002	2,000000000000000E+000	-1,7898231E-003	41	-3,3990560E-005
2	0	0	1	1	1,947705808748351E+005	1,7229395E+000	1,7224014E+000	-2,594723940784392E-002	2,000000000000000E+000	-4,2799087E-003	41	-4,4691562E-005
2	0	0	1	1	1,948805360920383E+005	1,6239799E+000	1,6234543E+000	-4,716167441526431E-002	2,000000000000000E+000	-8,0057057E-003	41	-7,6564822E-005
2	0	0	1	1	1,949904913092433E+005	1,5250200E+000	1,5244448E+000	-2,052984760366292E-001	2,000000000000000E+000	-1,8275261E-002	40	-3,1296621E-004
2	0	0	1	1	1,951004465264473E+005	1,4260606E+000	1,4255328E+000	-4,305948301926537E-001	2,000000000000000E+000	-5,9973009E-002	40	-6,1382708E-004
2	0	0	1	1	1,952104017436523E+005	1,3271009E+000	1,3265685E+000	-3,261121814968826E-001	2,000000000000000E+000	-1,0182942E-001	40	-4,3261013E-004
2	0	0	1	1	1,953203569608554E+005	1,2281412E+000	1,2275791E+000	-2,448873480389056E-001	2,000000000000000E+000	-1,3292511E-001	40	-3,0061859E-004
2	0	0	1	1	1,954303120780587E+005	1,1291819E+000	1,1286025E+000	-1,945207853631497E-001	2,000000000000000E+000	-1,5689011E-001	40	-2,1953664E-004
2	0	0	1	1	1,955402671952621E+005	1,0302222E+000	1,0296149E+000	-1,663046220708289E-001	2,000000000000000E+000	-1,7657150E-001	40	-1,7122972E-004
2	0	0	1	1	1,956488904122579E+005	1,0675069E+000	1,0669055E+000	-9,560364543358274E-002	2,000000000000000E+000	-1,9103383E-001	40	-1,0200006E-004
2	0	0	1	1	1,957588455294613E+005	1,1664666E+000	1,1658427E+000	-5,981314015779093E-002	2,000000000000000E+000	-1,9933365E-001	40	-6,9732712E-005
2	0	0	1	1	1,958688007466639E+005	1,2654260E+000	1,2648298E+000	-3,838789040947832E-002	2,000000000000000E+000	-2,0463356E-001	41	-4,8554146E-005
2	0	0	1	1	1,959787560638683E+005	1,3643856E+000	1,3637949E+000	-2,221989213764902E-002	2,000000000000000E+000	-2,0791951E-001	41	-3,0303376E-005
2	0	0	1	1	1,960887112810728E+005	1,4633454E+000	1,4628218E+000	-5,032054508002613E-003	2,000000000000000E+000	-2,0945062E-001	42	-7,3609995E-006
2	1	0	1	1	1,961986665982776E+005	1,5623051E+000	1,5616580E+000	3,581995671792448E-002	2,000000000000000E+000	-2,0830068E-001	41	5,5938523E-005
2	1	0	1	1	1,963086217154814E+005	1,6612647E+000	1,6605872E+000	4,404140369352456E-001	2,000000000000000E+000	-1,8699998E-001	40	7,3134591E-004
2	1	0	1	1	1,964185771326841E+005	1,7602243E+000	1,7596350E+000	1,307760156908707E+000	2,000000000000000E+000	-9,0505227E-002	39	2,3011805E-003
2	1	0	1	1	1,965285323498877E+005	1,8591840E+000	1,8585944E+000	1,120053274611328E-001	2,000000000000000E+000	-1,9660726E-002	40	2,0817248E-004
2	1	0	1	1	1,966385986671080E+005	1,9582435E+000	1,9575900E+000	4,584181121731123E-002	2,000000000000000E+000	-1,2143607E-002	41	8,9739471E-005
2	1	0	1	1	1,967485538843130E+005	2,0572033E+000	2,0565612E+000	2,737616673213455E-002	2,000000000000000E+000	-8,1574256E-003	41	5,6300763E-005
2	1	0	1	1	1,968585094015175E+005	2,1561625E+000	2,1555593E+000	1,911511038058145E-002	2,000000000000000E+000	-5,6384546E-003	41	4,1203755E-005
2	1	0	1	1	1,969684647187218E+005	2,2551222E+000	2,2545388E+000	1,470891767526998E-002	2,000000000000000E+000	-3,7427582E-003	41	3,3161825E-005
2	1	0	1	1	1,970784199359247E+005	2,3540821E+000	2,3534935E+000	1,314154496914471E-002	2,000000000000000E+000	-2,1732182E-003	41	3,0928539E-005
2	1	0	1	1	1,971883753531281E+005	2,4530418E+000	2,4524405E+000	1,250704641827528E-002	2,000000000000000E+000	-7,1640260E-004	41	3,0672789E-005
2	1	0	1	1	1,972983303703316E+005	2,5520012E+000	2,5514038E+000	1,242194001149965E-002	2,000000000000000E+000	6,9878786E-004	41	3,1693384E-005
2	1	0	1	1	1,974082857875344E+005	2,6509607E+000	2,6503744E+000	1,312347724041193E-002	2,000000000000000E+000	2,1467113E-003	41	3,4782130E-005
2	1	0	1	0	1,975166864044962E+005	2,6514604E+000	2,6508641E+000	3,781994442920156E-003	2,000000000000000E+000	3,2346374E-003	42	1,0025554E-005
2	1	0	1	0	1,976266416216998E+005	2,5525012E+000	2,5519214E+000	1,498590808691973E-005	2,000000000000000E+000	3,3617676E-003	42	3,8242860E-008
2	0	0	1	0	1,977365966389026E+005	2,4535418E+000	2,4529810E+000	-1,835493589308388E-003	2,000000000000000E+000	3,2114496E-003	42	-4,5024308E-006
2	0	0	1	0	1,978465517561063E+005	2,3545816E+000	2,3540354E+000	-3,216733020015881E-003	2,000000000000000E+000	2,8875519E-003	42	-7,5723033E-006
2	0	0	1	0	1,979565069733113E+005	2,2556221E+000	2,2551053E+000	-4,516171703658253E-003	2,000000000000000E+000	2,4213472E-003	42	-1,0184443E-005
2	0	0	1	0	1,980664620905155E+005	2,1566625E+000	2,1561773E+000	-6,049595402339319E-003	2,000000000000000E+000	1,8013536E-003	42	-1,3044000E-005
2	0	0	1	0	1,981764172077202E+005	2,0577028E+000	2,0571885E+000	-8,086093677278312E-003	2,000000000000000E+000	9,8616024E-004	42	-1,6634620E-005
2	0	0	1	0	1,982863724249231E+005	1,9587431E+000	1,9581465E+000	-1,105866400040495E-002	2,000000000000000E+000	-9,7325144E-005	41	-2,1654483E-005
2	0	0	1	0	1,983721502383440E+005	1,8815254E+000	1,8809471E+000	-1,492132034538121E-002	2,000000000000000E+000	-1,2319421E-003	41	-2,8066215E-005