File: Dati/201027/CV_LTO-C_Al_slurrymia_01_1mVs_10_CV_C03.mpt
EC-Lab ASCII FILE
Nb header lines : 63

Cyclic Voltammetry

Run on channel : 3 (SN 6807)
User :
Electrode connection : standard
Ewe ctrl range : min = 0,00 V, max = 5,00 V
Ewe,I filtering : 50 kHz
Safety Limits :
	Do not start on E overload
Channel : Grounded
Acquisition started on : 10/27/2020 18:19:16
Saved on :
	File : CV_LTO-C_Al_slurrymia_01_1mVs_10_CV_C03.mpr
	Directory : C:\Users\labsuperfici\Desktop\Biologic\Users\Prisca Viviani\201027\
	Host : 10.78.33.0
Device : VSP-300 (SN 0638)
Address : USB
EC-Lab for windows v11.31 (software)
Internet server v11.30 (firmware)
Command interpretor v11.31 (firmware)
Electrode material :
Initial state :
Electrolyte :
Comments :
Cable : standard
Reference electrode : SCE Saturated Calomel Electrode (0,241 V)
Electrode surface area : 0,001 cm²
Characteristic mass : 0,001 g
Equivalent Weight : 0,000 g/eq.
Density : 0,000 g/cm3
Cycle Definition : Charge/Discharge alternance
Ei (V)              0,000
vs.                 Eoc
dE/dt               1,000
dE/dt unit          mV/s
E1 (V)              1,000
vs.                 Ref
Step percent        50
N                   10
E range min (V)     0,000
E range max (V)     5,000
I Range             Auto
I Range min         Unset
I Range max         Unset
I Range init        Unset
Bandwidth           8
E2 (V)              3,000
vs.                 Ref
nc cycles           2
Reverse Scan        1
Ef (V)              0,000
vs.                 Eoc

Modify on : 10/28/2020 10:35
nc cycles           1

Modify on : 10/28/2020 10:37
E2 (V)              2,700

mode	ox/red	error	control changes	counter inc.	time/s	control/V	Ewe/V	<I>/mA	cycle number	(Q-Qo)/C	I Range	P/W
2	0	0	1	0	1,983723504383746E+005	1,8815254E+000	1,8809662E+000	-1,737566664814949E-002	1,000000000000000E+000	0,0000000E+000	41	-3,2683041E-005
2	0	0	1	0	1,984708603537873E+005	1,7830149E+000	1,7824485E+000	-2,315465591426860E-002	1,000000000000000E+000	-1,9239119E-003	41	-4,1271982E-005
2	0	0	1	0	1,985698200692711E+005	1,6840552E+000	1,6834940E+000	-3,312695296867896E-002	1,000000000000000E+000	-4,7066389E-003	41	-5,5769025E-005
2	0	0	1	0	1,986687796847553E+005	1,5850955E+000	1,5845963E+000	-7,774414665339746E-002	1,000000000000000E+000	-9,6617872E-003	41	-1,2319308E-004
2	0	0	1	0	1,987677393002380E+005	1,4861360E+000	1,4855860E+000	-3,944106533792873E-001	1,000000000000000E+000	-2,9134482E-002	40	-5,8593095E-004
2	0	0	1	0	1,988666989157214E+005	1,3871764E+000	1,3866491E+000	-4,178974447877364E-001	1,000000000000000E+000	-7,2698452E-002	40	-5,7947711E-004
2	0	0	1	0	1,989656585312046E+005	1,2882168E+000	1,2876887E+000	-3,128526755032608E-001	1,000000000000000E+000	-1,0869654E-001	40	-4,0285685E-004
2	0	0	1	0	1,990646181466887E+005	1,1892571E+000	1,1886840E+000	-2,421568758203405E-001	1,000000000000000E+000	-1,3592131E-001	40	-2,8784800E-004
2	0	0	1	0	1,991635777621719E+005	1,0902977E+000	1,0897266E+000	-1,991989928662607E-001	1,000000000000000E+000	-1,5760162E-001	40	-2,1707243E-004
2	0	0	1	0	1,992614385774826E+005	1,0075314E+000	1,0069206E+000	-1,594831583249512E-001	1,000000000000000E+000	-1,7583477E-001	40	-1,6058687E-004
2	0	0	1	0	1,993603981929664E+005	1,1064910E+000	1,1059026E+000	-9,049357406057207E-002	1,000000000000000E+000	-1,8745989E-001	40	-1,0007707E-004
2	0	0	1	0	1,994593578084505E+005	1,2054505E+000	1,2048401E+000	-6,092958648812974E-002	1,000000000000000E+000	-1,9480307E-001	40	-7,3410403E-005
2	0	0	1	0	1,995583176239338E+005	1,3044102E+000	1,3038350E+000	-4,079979140404799E-002	1,000000000000000E+000	-1,9977133E-001	41	-5,3196196E-005
2	0	0	1	0	1,996572772394167E+005	1,4033698E+000	1,4027708E+000	-2,331700166679856E-002	1,000000000000000E+000	-2,0292658E-001	41	-3,2708409E-005
2	1	0	1	0	1,997563368549165E+005	1,5024296E+000	1,5018317E+000	6,865489099655807E-004	1,000000000000000E+000	-2,0415115E-001	42	1,0310808E-006
2	1	0	1	0	1,998552965703994E+005	1,6013892E+000	1,6007916E+000	1,323594869343827E-001	1,000000000000000E+000	-2,0049597E-001	40	2,1187995E-004
2	1	0	1	0	1,999542562858826E+005	1,7003487E+000	1,6996589E+000	7,597416943861077E-001	1,000000000000000E+000	-1,6037272E-001	40	1,2913017E-003
2	1	0	1	0	2,000532160013663E+005	1,7993084E+000	1,7987663E+000	1,004215968712555E+000	1,000000000000000E+000	-4,6647377E-002	39	1,8063498E-003
2	1	0	1	0	2,001521757168495E+005	1,8982679E+000	1,8976804E+000	8,141639653520916E-002	1,000000000000000E+000	-1,5533252E-002	40	1,5450230E-004
2	1	0	1	0	2,002511353323329E+005	1,9972274E+000	1,9966046E+000	4,271254698356438E-002	1,000000000000000E+000	-9,7817797E-003	41	8,5280066E-005
2	1	0	1	0	2,003500952478158E+005	2,0961871E+000	2,0955589E+000	2,652936541961176E-002	1,000000000000000E+000	-6,3799950E-003	41	5,5593846E-005
2	1	0	1	0	2,004490548633002E+005	2,1951468E+000	2,1945224E+000	1,921707153262608E-002	1,000000000000000E+000	-4,1384376E-003	41	4,2172294E-005
2	1	0	1	0	2,005480146787835E+005	2,2941062E+000	2,2934811E+000	1,522003065629568E-002	1,000000000000000E+000	-2,4140966E-003	41	3,4906854E-005
2	1	0	1	0	2,006469743942665E+005	2,3930659E+000	2,3924978E+000	1,396636432402570E-002	1,000000000000000E+000	-9,2945190E-004	41	3,3414497E-005
2	1	0	1	0	2,007459342097500E+005	2,4920256E+000	2,4914229E+000	1,348810599378350E-002	1,000000000000000E+000	4,7296809E-004	41	3,3604578E-005
2	1	0	1	0	2,008448940252333E+005	2,5909851E+000	2,5904100E+000	1,368786781292157E-002	1,000000000000000E+000	1,8588980E-003	41	3,5457189E-005
2	1	0	1	0	2,009438538407166E+005	2,6899447E+000	2,6893528E+000	1,483654685206685E-002	1,000000000000000E+000	3,3086629E-003	41	3,9900708E-005
2	1	0	1	1	2,010414141559815E+005	2,6124766E+000	2,6118784E+000	1,914439394293834E-003	1,000000000000000E+000	3,8823052E-003	42	5,0002827E-006
2	0	0	1	1	2,011403737714650E+005	2,5135169E+000	2,5129592E+000	-8,273657814984355E-004	1,000000000000000E+000	3,8807297E-003	42	-2,0791365E-006
2	0	0	1	1	2,012393333869483E+005	2,4145575E+000	2,4140186E+000	-2,601893482771706E-003	1,000000000000000E+000	3,6650042E-003	42	-6,2810195E-006
2	0	0	1	1	2,013382930024315E+005	2,3155978E+000	2,3150537E+000	-4,033193983456300E-003	1,000000000000000E+000	3,2947138E-003	42	-9,3370609E-006
2	0	0	1	1	2,014372526179145E+005	2,2166383E+000	2,2161176E+000	-5,536187570709214E-003	1,000000000000000E+000	2,7835681E-003	42	-1,2268843E-005
2	0	0	1	1	2,015362123333989E+005	2,1176782E+000	2,1172013E+000	-7,383763895888795E-003	1,000000000000000E+000	2,1085371E-003	42	-1,5632915E-005
2	0	0	1	1	2,016351719488814E+005	2,0187187E+000	2,0181365E+000	-9,832462202152857E-003	1,000000000000000E+000	1,2213179E-003	41	-1,9843252E-005
2	0	0	1	1	2,017341316643646E+005	1,9197592E+000	1,9191937E+000	-1,376630691871655E-002	1,000000000000000E+000	2,7859705E-005	41	-2,6420210E-005
2	0	0	1	1	2,018319916796768E+005	1,8218991E+000	1,8213151E+000	-2,010265396526989E-002	2,000000000000000E+000	-1,6517321E-003	41	-3,6613266E-005
2	0	0	1	1	2,019309513951602E+005	1,7229394E+000	1,7224224E+000	-2,839706005522247E-002	2,000000000000000E+000	-4,0828916E-003	41	-4,8911730E-005
2	0	0	1	1	2,020299110106435E+005	1,6239797E+000	1,6234406E+000	-5,161229985971921E-002	2,000000000000000E+000	-7,7525172E-003	41	-8,3789506E-005
2	0	0	1	1	2,021288706261264E+005	1,5250201E+000	1,5244441E+000	-2,093474262269917E-001	2,000000000000000E+000	-1,7589867E-002	40	-3,1913846E-004
2	0	0	1	1	2,022278302416094E+005	1,4260607E+000	1,4255211E+000	-4,514479216265306E-001	2,000000000000000E+000	-5,6289483E-002	40	-6,4354856E-004
2	0	0	1	1	2,023267898570937E+005	1,3271008E+000	1,3265735E+000	-3,492071954351859E-001	2,000000000000000E+000	-9,6264832E-002	40	-4,6324902E-004
2	0	0	1	1	2,024257494725769E+005	1,2281413E+000	1,2275882E+000	-2,642744471406461E-001	2,000000000000000E+000	-1,2634431E-001	40	-3,2442019E-004
2	0	0	1	1	2,025247091880599E+005	1,1291817E+000	1,1285790E+000	-2,118514728445642E-001	2,000000000000000E+000	-1,4971659E-001	40	-2,3909112E-004
2	0	0	1	1	2,026236687035437E+005	1,0302221E+000	1,0295990E+000	-1,828669087817065E-001	2,000000000000000E+000	-1,6910061E-001	40	-1,8827958E-004
2	0	0	1	1	2,027214296188401E+005	1,0675069E+000	1,0669031E+000	-1,078827435400853E-001	2,000000000000000E+000	-1,8354082E-001	40	-1,1510043E-004
2	0	0	1	1	2,028203893343232E+005	1,1664665E+000	1,1658758E+000	-7,055659850103990E-002	2,000000000000000E+000	-1,9213428E-001	40	-8,2260231E-005
2	0	0	1	1	2,029193489498068E+005	1,2654260E+000	1,2648790E+000	-4,810797854560639E-002	2,000000000000000E+000	-1,9792213E-001	41	-6,0850773E-005
2	0	0	1	1	2,030183086652895E+005	1,3643858E+000	1,3638170E+000	-3,058351025466516E-002	2,000000000000000E+000	-2,0177847E-001	41	-4,1710311E-005
2	0	0	1	1	2,031172683807726E+005	1,4633455E+000	1,4627620E+000	-1,108268886538641E-002	2,000000000000000E+000	-2,0387484E-001	41	-1,6211336E-005
2	1	0	1	1	2,032163279962719E+005	1,5624050E+000	1,5617578E+000	3,554223232574683E-002	2,000000000000000E+000	-2,0318016E-001	41	5,5508357E-005
2	1	0	1	1	2,033152877117554E+005	1,6613647E+000	1,6606656E+000	4,558539440428069E-001	2,000000000000000E+000	-1,8325421E-001	40	7,5702096E-004
2	1	0	1	1	2,034142474272391E+005	1,7603241E+000	1,7597454E+000	1,342001259393825E+000	2,000000000000000E+000	-9,5376499E-002	39	2,3615805E-003
2	1	0	1	1	2,035132071427219E+005	1,8592839E+000	1,8586748E+000	1,415513809215851E-001	2,000000000000000E+000	-2,0113191E-002	40	2,6309799E-004
2	1	0	1	1	2,036121668582056E+005	1,9582435E+000	1,9576491E+000	5,274397824262195E-002	2,000000000000000E+000	-1,2109597E-002	40	1,0325420E-004
2	1	0	1	1	2,037111264736885E+005	2,0572031E+000	2,0565834E+000	3,178365870614297E-002	2,000000000000000E+000	-7,9728309E-003	41	6,5365748E-005
2	1	0	1	1	2,038100862891730E+005	2,1561625E+000	2,1555760E+000	2,109294123536504E-002	2,000000000000000E+000	-5,3852792E-003	41	4,5467437E-005
2	1	0	1	1	2,039090461046563E+005	2,2551224E+000	2,2544911E+000	1,636041293040577E-002	2,000000000000000E+000	-3,4988620E-003	41	3,6884405E-005
2	1	0	1	1	2,040080059201391E+005	2,3540821E+000	2,3535078E+000	1,425229112919690E-002	2,000000000000000E+000	-1,9617307E-003	41	3,3542878E-005
2	1	0	1	1	2,041069655356228E+005	2,4530413E+000	2,4524610E+000	1,351183277042107E-002	2,000000000000000E+000	-5,4527528E-004	41	3,3137243E-005
2	1	0	1	1	2,042059252511058E+005	2,5520010E+000	2,5514288E+000	1,339380276460077E-002	2,000000000000000E+000	8,2887826E-004	41	3,4173336E-005
2	1	0	1	1	2,043048850665893E+005	2,6509609E+000	2,6503966E+000	1,413252721107178E-002	2,000000000000000E+000	2,2297350E-003	41	3,7456801E-005
2	1	0	1	0	2,044024456818542E+005	2,6514606E+000	2,6508486E+000	4,024799837506823E-003	2,000000000000000E+000	3,2792231E-003	42	1,0669135E-005
2	1	0	1	0	2,045014054973379E+005	2,5525010E+000	2,5519388E+000	2,081861355662190E-006	2,000000000000000E+000	3,4022790E-003	42	5,3127827E-009
2	0	0	1	0	2,046003649128210E+005	2,4535413E+000	2,4529908E+000	-2,026661262174143E-003	2,000000000000000E+000	3,2575463E-003	42	-4,9713813E-006
2	0	0	1	0	2,046993246283045E+005	2,3545816E+000	2,3540511E+000	-3,530675189871102E-003	2,000000000000000E+000	2,9429705E-003	42	-8,3113900E-006
2	0	0	1	0	2,047982842437874E+005	2,2556221E+000	2,2550964E+000	-4,911677038556841E-003	2,000000000000000E+000	2,4886883E-003	42	-1,1076306E-005
2	0	0	1	0	2,048972439592713E+005	2,1566625E+000	2,1561730E+000	-6,602287648944986E-003	2,000000000000000E+000	1,8842984E-003	42	-1,4235674E-005
2	0	0	1	0	2,049962035747541E+005	2,0577030E+000	2,0572362E+000	-8,777633127362433E-003	2,000000000000000E+000	1,0910849E-003	42	-1,8057664E-005
2	0	0	1	0	2,050951632902380E+005	1,9587433E+000	1,9581647E+000	-1,188241242108444E-002	2,000000000000000E+000	4,0310413E-005	41	-2,3267721E-005
2	0	0	0	0	2,051723633023151E+005	1,8815254E+000	1,8809509E+000	-1,597346567732703E-002	2,000000000000000E+000	-1,0563231E-003	41	-3,0045305E-005