File: Dati/201027/CV_LTO-C_Al_slurrymia_01_1mVs_07_CV_C03.mpt
EC-Lab ASCII FILE
Nb header lines : 63

Cyclic Voltammetry

Run on channel : 3 (SN 6807)
User :
Electrode connection : standard
Ewe ctrl range : min = 0,00 V, max = 5,00 V
Ewe,I filtering : 50 kHz
Safety Limits :
	Do not start on E overload
Channel : Grounded
Acquisition started on : 10/27/2020 18:19:16
Saved on :
	File : CV_LTO-C_Al_slurrymia_01_1mVs_07_CV_C03.mpr
	Directory : C:\Users\labsuperfici\Desktop\Biologic\Users\Prisca Viviani\201027\
	Host : 10.78.33.0
Device : VSP-300 (SN 0638)
Address : USB
EC-Lab for windows v11.31 (software)
Internet server v11.30 (firmware)
Command interpretor v11.31 (firmware)
Electrode material :
Initial state :
Electrolyte :
Comments :
Cable : standard
Reference electrode : SCE Saturated Calomel Electrode (0,241 V)
Electrode surface area : 0,001 cm²
Characteristic mass : 0,001 g
Equivalent Weight : 0,000 g/eq.
Density : 0,000 g/cm3
Cycle Definition : Charge/Discharge alternance
Ei (V)              0,000
vs.                 Eoc
dE/dt               0,700
dE/dt unit          mV/s
E1 (V)              1,000
vs.                 Ref
Step percent        50
N                   10
E range min (V)     0,000
E range max (V)     5,000
I Range             Auto
I Range min         Unset
I Range max         Unset
I Range init        Unset
Bandwidth           8
E2 (V)              3,000
vs.                 Ref
nc cycles           2
Reverse Scan        1
Ef (V)              0,000
vs.                 Eoc

Modify on : 10/28/2020 10:35
nc cycles           1

Modify on : 10/28/2020 10:37
E2 (V)              2,700

mode	ox/red	error	control changes	counter inc.	time/s	control/V	Ewe/V	<I>/mA	cycle number	(Q-Qo)/C	I Range	P/W
2	0	0	0	0	1,726018272062745E+005	1,8815254E+000	1,8809166E+000	-1,274878159165382E-002	1,000000000000000E+000	0,0000000E+000	41	-2,3979395E-005
2	0	0	1	0	1,727425556282937E+005	1,7830148E+000	1,7823801E+000	-1,813095436811259E-002	1,000000000000000E+000	-2,2184874E-003	41	-3,2316253E-005
2	0	0	1	0	1,728839264504113E+005	1,6840553E+000	1,6834834E+000	-2,466396717887875E-002	1,000000000000000E+000	-5,2447408E-003	41	-4,1521380E-005
2	0	0	1	0	1,730252972725309E+005	1,5850956E+000	1,5845193E+000	-6,176448394440048E-002	1,000000000000000E+000	-1,0680479E-002	41	-9,7867014E-005
2	0	0	0	0	1,731666682946507E+005	1,4861361E+000	1,4855882E+000	-4,179535750148657E-001	1,000000000000000E+000	-3,9113916E-002	40	-6,2090688E-004
2	0	0	0	0	1,733080391167696E+005	1,3871765E+000	1,3866138E+000	-3,667384287244877E-001	1,000000000000000E+000	-9,8946154E-002	40	-5,0852459E-004
2	0	0	0	0	1,734494099388879E+005	1,2882168E+000	1,2876624E+000	-2,463188830614351E-001	1,000000000000000E+000	-1,4153968E-001	40	-3,1717555E-004
2	0	0	1	0	1,735907808610078E+005	1,1892573E+000	1,1886591E+000	-1,742842841043442E-001	1,000000000000000E+000	-1,7093489E-001	40	-2,0716460E-004
2	0	0	1	0	1,737321516831275E+005	1,0902978E+000	1,0897056E+000	-1,284001324056514E-001	1,000000000000000E+000	-1,9212048E-001	40	-1,3991834E-004
2	0	0	1	0	1,738719525050004E+005	1,0075313E+000	1,0069109E+000	-8,972673693972577E-002	1,000000000000000E+000	-2,0804672E-001	40	-9,0346832E-005
2	0	0	1	0	1,740133234271202E+005	1,1064910E+000	1,1059281E+000	-3,451024505429334E-002	1,000000000000000E+000	-2,1592216E-001	41	-3,8165850E-005
2	0	0	0	0	1,741546944492385E+005	1,2054505E+000	1,2048930E+000	-1,511668841700092E-002	1,000000000000000E+000	-2,1923093E-001	41	-1,8213992E-005
2	0	0	1	0	1,742960654713570E+005	1,3044103E+000	1,3038888E+000	-4,982893672761307E-003	1,000000000000000E+000	-2,2057432E-001	42	-6,4971391E-006
2	1	0	1	0	1,744375791934987E+005	1,4034698E+000	1,4028671E+000	2,595269036121936E-003	1,000000000000000E+000	-2,2072440E-001	42	3,6408176E-006
2	1	0	1	0	1,745789502156191E+005	1,5024297E+000	1,5018469E+000	1,387240901249225E-002	1,000000000000000E+000	-2,1963929E-001	41	2,0834235E-005
2	1	0	1	0	1,747203211377379E+005	1,6013891E+000	1,6007973E+000	1,031724223105472E-001	1,000000000000000E+000	-2,1446314E-001	41	1,6515814E-004
2	1	0	1	0	1,748616922598560E+005	1,7003489E+000	1,6996994E+000	6,035719658018026E-001	1,000000000000000E+000	-1,7030872E-001	40	1,0258909E-003
2	1	0	1	0	1,750030632819755E+005	1,7993083E+000	1,7987676E+000	6,385170395409094E-001	1,000000000000000E+000	-4,1102063E-002	39	1,1485438E-003
2	1	0	0	0	1,751445770041177E+005	1,8983678E+000	1,8978143E+000	5,245274415131451E-002	1,000000000000000E+000	-1,6054574E-002	40	9,9545563E-005
2	1	0	1	0	1,752860908262595E+005	1,9974275E+000	1,9967932E+000	2,721201529042888E-002	1,000000000000000E+000	-1,0632901E-002	41	5,4336764E-005
2	1	0	1	0	1,754274619483785E+005	2,0963871E+000	2,0957580E+000	1,841305005980935E-002	1,000000000000000E+000	-7,4914456E-003	41	3,8589296E-005
2	1	0	1	0	1,755688329704967E+005	2,1953466E+000	2,1947377E+000	1,415637883273181E-002	1,000000000000000E+000	-5,1377886E-003	41	3,1069540E-005
2	1	0	1	0	1,757102039926159E+005	2,2943063E+000	2,2936919E+000	1,192433213971886E-002	1,000000000000000E+000	-3,2717977E-003	41	2,7350743E-005
2	1	0	1	0	1,758515748147359E+005	2,3932657E+000	2,3926680E+000	1,106552152075310E-002	1,000000000000000E+000	-1,5919883E-003	41	2,6476120E-005
2	1	0	1	0	1,759929458368551E+005	2,4922256E+000	2,4916215E+000	1,072241532061247E-002	1,000000000000000E+000	4,8835786E-006	41	2,6716201E-005
2	1	0	1	0	1,761343170589735E+005	2,5911853E+000	2,5905776E+000	1,093103515855112E-002	1,000000000000000E+000	1,5905888E-003	41	2,8317694E-005
2	1	0	1	0	1,762756877810927E+005	2,6901448E+000	2,6895390E+000	1,165003326732397E-002	1,000000000000000E+000	3,2448161E-003	41	3,1333217E-005
2	1	0	1	1	1,764147745028553E+005	2,6124768E+000	2,6119127E+000	1,410947795925589E-003	1,000000000000000E+000	3,8795676E-003	42	3,6852725E-006
2	0	0	1	1	1,765561454249732E+005	2,5135169E+000	2,5129812E+000	-8,067426652198888E-004	1,000000000000000E+000	3,8533250E-003	42	-2,0273292E-006
2	0	0	1	1	1,766975161470924E+005	2,4145575E+000	2,4140387E+000	-2,086761565657250E-003	1,000000000000000E+000	3,5951443E-003	42	-5,0375229E-006
2	0	0	1	1	1,768388869692124E+005	2,3155978E+000	2,3150907E+000	-3,074831408119115E-003	1,000000000000000E+000	3,1799506E-003	42	-7,1185136E-006
2	0	0	1	1	1,769802576913312E+005	2,2166378E+000	2,2161376E+000	-4,210759740042119E-003	1,000000000000000E+000	2,6186800E-003	42	-9,3316230E-006
2	0	0	1	1	1,771216284134495E+005	2,1176784E+000	2,1171832E+000	-5,617149699690092E-003	1,000000000000000E+000	1,8815941E-003	42	-1,1892535E-005
2	0	0	1	1	1,772629990355697E+005	2,0187185E+000	2,0182226E+000	-7,510599842152008E-003	1,000000000000000E+000	9,1563270E-004	42	-1,5158063E-005
2	0	0	1	1	1,774043701576893E+005	1,9197593E+000	1,9192030E+000	-1,073336317980043E-002	1,000000000000000E+000	-4,0517835E-004	41	-2,0599504E-005
2	0	0	1	1	1,775441701795625E+005	1,8218992E+000	1,8212961E+000	-1,554581883919771E-002	2,000000000000000E+000	-2,2726024E-003	41	-2,8313540E-005
2	0	0	1	1	1,776855410016817E+005	1,7229395E+000	1,7223754E+000	-2,116816822076401E-002	2,000000000000000E+000	-4,9155471E-003	41	-3,6459533E-005
2	0	0	1	1	1,778269120237995E+005	1,6239798E+000	1,6234571E+000	-3,783455039909539E-002	2,000000000000000E+000	-8,7731043E-003	41	-6,1422768E-005
2	0	0	1	1	1,779682829459184E+005	1,5250202E+000	1,5244323E+000	-1,840597950202028E-001	2,000000000000000E+000	-1,9809835E-002	40	-2,8058668E-004
2	0	0	1	1	1,781096536680388E+005	1,4260607E+000	1,4255342E+000	-3,756607963124354E-001	2,000000000000000E+000	-6,7278370E-002	40	-5,3551735E-004
2	0	0	1	1	1,782510246901582E+005	1,3271009E+000	1,3265446E+000	-2,780942952460304E-001	2,000000000000000E+000	-1,1361489E-001	40	-3,6890450E-004
2	0	0	1	1	1,783923955122759E+005	1,2281413E+000	1,2275522E+000	-2,058172015829105E-001	2,000000000000000E+000	-1,4746960E-001	40	-2,5265134E-004
2	0	0	1	1	1,785337663343955E+005	1,1291816E+000	1,1285936E+000	-1,602704269426596E-001	2,000000000000000E+000	-1,7316595E-001	40	-1,8088018E-004
2	0	0	1	1	1,786751371565154E+005	1,0302221E+000	1,0296226E+000	-1,306590303044964E-001	2,000000000000000E+000	-1,9358200E-001	40	-1,3452949E-004
2	0	0	1	1	1,788147951783667E+005	1,0675069E+000	1,0669153E+000	-6,571859961285997E-002	2,000000000000000E+000	-2,0753604E-001	40	-7,0116177E-005
2	0	0	1	1	1,789561661004857E+005	1,1664666E+000	1,1658713E+000	-3,343558019762505E-002	2,000000000000000E+000	-2,1423717E-001	41	-3,8981583E-005
2	0	0	1	1	1,790975371226035E+005	1,2654262E+000	1,2647933E+000	-1,663824947087136E-002	2,000000000000000E+000	-2,1764514E-001	41	-2,1043947E-005
2	0	0	1	1	1,792389080447225E+005	1,3643857E+000	1,3637675E+000	-5,701020987130018E-003	2,000000000000000E+000	-2,1916583E-001	41	-7,7748673E-006
2	1	0	1	1	1,793804219668648E+005	1,4634454E+000	1,4627831E+000	5,303939712210298E-003	2,000000000000000E+000	-2,1921118E-001	42	7,7585137E-006
2	1	0	1	1	1,795217928889846E+005	1,5624049E+000	1,5617368E+000	3,593004630083618E-002	2,000000000000000E+000	-2,1691783E-001	41	5,6113277E-005
2	1	0	0	1	1,796631639111033E+005	1,6613646E+000	1,6606725E+000	4,134751838012540E-001	2,000000000000000E+000	-1,9141278E-001	40	6,8664690E-004
2	1	0	1	1	1,798045349332218E+005	1,7603242E+000	1,7597146E+000	1,103440726927076E+000	2,000000000000000E+000	-7,1497172E-002	39	1,9417407E-003
2	1	0	1	1	1,799459059553416E+005	1,8592838E+000	1,8586904E+000	6,650991742507850E-002	2,000000000000000E+000	-1,8903017E-002	40	1,2362134E-004
2	1	0	1	1	1,800874197774839E+005	1,9583435E+000	1,9577218E+000	3,156394390350736E-002	2,000000000000000E+000	-1,2504384E-002	41	6,1793420E-005
2	1	0	1	1	1,802287910996033E+005	2,0573032E+000	2,0566802E+000	1,904501625431734E-002	2,000000000000000E+000	-9,0364423E-003	41	3,9169507E-005
2	1	0	1	1	1,803701618217207E+005	2,1562626E+000	2,1556456E+000	1,457453248694188E-002	2,000000000000000E+000	-6,5880986E-003	41	3,1417527E-005
2	1	0	1	1	1,805115329438397E+005	2,2552223E+000	2,2545853E+000	1,197924743006299E-002	2,000000000000000E+000	-4,6802829E-003	41	2,7008235E-005
2	1	0	1	1	1,806529039659603E+005	2,3541818E+000	2,3535945E+000	1,087315845552802E-002	2,000000000000000E+000	-3,0097247E-003	41	2,5591007E-005
2	1	0	1	1	1,807942749880799E+005	2,4531417E+000	2,4525716E+000	1,034345790818927E-002	2,000000000000000E+000	-1,4541179E-003	41	2,5368072E-005
2	1	0	1	1	1,809356460101972E+005	2,5521011E+000	2,5515280E+000	1,030767443169268E-002	2,000000000000000E+000	5,8216607E-005	41	2,6300320E-005
2	1	0	1	1	1,810770170323167E+005	2,6510611E+000	2,6504924E+000	1,094289529131073E-002	2,000000000000000E+000	1,6126867E-003	41	2,9004061E-005
2	1	0	1	0	1,812162460541017E+005	2,6514609E+000	2,6508698E+000	3,141629577799114E-003	2,000000000000000E+000	2,7795890E-003	42	8,3280511E-006
2	1	0	1	0	1,813576170762200E+005	2,5525010E+000	2,5519357E+000	-8,878910852840830E-005	2,000000000000000E+000	2,9001848E-003	42	-2,2658409E-007
2	0	0	1	0	1,814989879983389E+005	2,4535415E+000	2,4529800E+000	-1,603671182562688E-003	2,000000000000000E+000	2,7205048E-003	42	-3,9337733E-006
2	0	0	1	0	1,816403587204586E+005	2,3545816E+000	2,3540325E+000	-2,688541020871280E-003	2,000000000000000E+000	2,3642373E-003	42	-6,3289131E-006
2	0	0	1	0	1,817817293425784E+005	2,2556224E+000	2,2550941E+000	-3,718732100429480E-003	2,000000000000000E+000	1,8632845E-003	42	-8,3860905E-006
2	0	0	1	0	1,819231000646967E+005	2,1566622E+000	2,1561730E+000	-5,010941869654340E-003	2,000000000000000E+000	1,1995471E-003	42	-1,0804458E-005
2	0	0	1	0	1,820644710868152E+005	2,0577028E+000	2,0571876E+000	-6,717828008924259E-003	2,000000000000000E+000	3,2622839E-004	42	-1,3819832E-005
2	0	0	1	0	1,822058418089359E+005	1,9587431E+000	1,9581628E+000	-9,253613571891334E-003	2,000000000000000E+000	-8,4010628E-004	41	-1,8120081E-005
2	0	0	1	0	1,823161273261900E+005	1,8815254E+000	1,8809547E+000	-1,242968823443347E-002	2,000000000000000E+000	-2,0662895E-003	41	-2,3379682E-005