File: Dati/201027/CV_LTO-C_Al_slurrymia_01_1mVs_03_CV_C03.mpt
EC-Lab ASCII FILE
Nb header lines : 63

Cyclic Voltammetry

Run on channel : 3 (SN 6807)
User :
Electrode connection : standard
Ewe ctrl range : min = 0,00 V, max = 5,00 V
Ewe,I filtering : 50 kHz
Safety Limits :
	Do not start on E overload
Channel : Grounded
Acquisition started on : 10/27/2020 18:19:16
Saved on :
	File : CV_LTO-C_Al_slurrymia_01_1mVs_03_CV_C03.mpr
	Directory : C:\Users\labsuperfici\Desktop\Biologic\Users\Prisca Viviani\201027\
	Host : 10.78.33.0
Device : VSP-300 (SN 0638)
Address : USB
EC-Lab for windows v11.31 (software)
Internet server v11.30 (firmware)
Command interpretor v11.31 (firmware)
Electrode material :
Initial state :
Electrolyte :
Comments :
Cable : standard
Reference electrode : SCE Saturated Calomel Electrode (0,241 V)
Electrode surface area : 0,001 cm²
Characteristic mass : 0,001 g
Equivalent Weight : 0,000 g/eq.
Density : 0,000 g/cm3
Cycle Definition : Charge/Discharge alternance
Ei (V)              0,000
vs.                 Eoc
dE/dt               0,300
dE/dt unit          mV/s
E1 (V)              1,000
vs.                 Ref
Step percent        50
N                   10
E range min (V)     0,000
E range max (V)     5,000
I Range             Auto
I Range min         Unset
I Range max         Unset
I Range init        Unset
Bandwidth           8
E2 (V)              3,000
vs.                 Ref
nc cycles           2
Reverse Scan        1
Ef (V)              0,000
vs.                 Eoc

Modify on : 10/28/2020 10:35
nc cycles           1

Modify on : 10/28/2020 10:37
E2 (V)              2,700

mode	ox/red	error	control changes	counter inc.	time/s	control/V	Ewe/V	<I>/mA	cycle number	(Q-Qo)/C	I Range	P/W
2	0	0	1	0	1,080005443657590E+005	1,8815254E+000	1,8810196E+000	-4,609875846654177E-003	1,000000000000000E+000	0,0000000E+000	42	-8,6712671E-006
2	0	0	1	0	1,083255783888880E+005	1,7840145E+000	1,7835652E+000	-8,675273555474615E-003	1,000000000000000E+000	-2,2714240E-003	42	-1,5472915E-005
2	0	0	1	0	1,086521119116682E+005	1,6860546E+000	1,6855055E+000	-1,130082808837321E-002	1,000000000000000E+000	-5,5869757E-003	41	-1,9047608E-005
2	0	0	1	0	1,089786455344437E+005	1,5880945E+000	1,5875556E+000	-2,363630289359175E-002	1,000000000000000E+000	-1,0704677E-002	41	-3,7523947E-005
2	0	0	1	0	1,093051789571901E+005	1,4901345E+000	1,4895720E+000	-1,337751308496610E-001	1,000000000000000E+000	-3,1184623E-002	40	-1,9926770E-004
2	0	0	1	0	1,096317123799357E+005	1,3921745E+000	1,3916321E+000	-1,827074332674785E-001	1,000000000000000E+000	-8,7318845E-002	40	-2,5426151E-004
2	0	0	1	0	1,099582460026848E+005	1,2942144E+000	1,2936482E+000	-1,413784207689053E-001	1,000000000000000E+000	-1,4067906E-001	40	-1,8289394E-004
2	0	0	1	0	1,102847792254626E+005	1,1962545E+000	1,1956563E+000	-9,785091757447562E-002	1,000000000000000E+000	-1,7989093E-001	40	-1,1699607E-004
2	0	0	1	0	1,106113128482426E+005	1,0982944E+000	1,0977414E+000	-6,061178900759845E-002	1,000000000000000E+000	-2,0535368E-001	40	-6,6536071E-005
2	0	0	1	0	1,109376795710468E+005	1,0003846E+000	9,9983418E-001	-4,268994889334604E-002	1,000000000000000E+000	-2,2162825E-001	41	-4,2682870E-005
2	0	0	1	0	1,112607152946256E+005	1,0964950E+000	1,0959371E+000	-8,778135599452813E-003	1,000000000000000E+000	-2,2808509E-001	41	-9,6202848E-006
2	0	0	1	0	1,115872495173675E+005	1,1944551E+000	1,1938947E+000	-1,200110680353849E-003	1,000000000000000E+000	-2,2945853E-001	42	-1,4328058E-006
2	1	0	1	0	1,119141169400421E+005	1,2925152E+000	1,2919301E+000	1,639072161315654E-003	1,000000000000000E+000	-2,2930875E-001	42	2,1175667E-006
2	1	0	1	0	1,122406507628197E+005	1,3904752E+000	1,3898932E+000	3,761032246183099E-003	1,000000000000000E+000	-2,2841945E-001	42	5,2274331E-006
2	1	0	1	0	1,125671849855983E+005	1,4884354E+000	1,4878200E+000	8,396748504247903E-003	1,000000000000000E+000	-2,2653902E-001	42	1,2492851E-005
2	1	0	1	0	1,128937192083623E+005	1,5863951E+000	1,5857861E+000	3,259518759321564E-002	1,000000000000000E+000	-2,2131488E-001	41	5,1688996E-005
2	1	0	1	0	1,132202532311045E+005	1,6843551E+000	1,6837928E+000	1,942178234649679E-001	1,000000000000000E+000	-1,8622075E-001	40	3,2702257E-004
2	1	0	1	0	1,135467874538476E+005	1,7823154E+000	1,7817012E+000	3,642940398258503E-001	1,000000000000000E+000	-7,1422413E-002	40	6,4906315E-004
2	1	0	1	0	1,138733214766161E+005	1,8802755E+000	1,8796719E+000	2,970572227759960E-002	1,000000000000000E+000	-1,8742312E-002	41	5,5837012E-005
2	1	0	1	0	1,141998554993935E+005	1,9782354E+000	1,9776798E+000	1,129128783404050E-002	1,000000000000000E+000	-1,3409963E-002	41	2,2330552E-005
2	1	0	1	0	1,145263901221720E+005	2,0761955E+000	2,0756681E+000	7,812430764001829E-003	1,000000000000000E+000	-1,0326670E-002	41	1,6216014E-005
2	1	0	1	0	1,148529241449216E+005	2,1741555E+000	2,1736314E+000	7,014731604528646E-003	1,000000000000000E+000	-7,8609344E-003	41	1,5247441E-005
2	1	0	1	0	1,151794581676633E+005	2,2721152E+000	2,2716146E+000	6,371515165942809E-003	1,000000000000000E+000	-5,6276582E-003	41	1,4473627E-005
2	1	0	1	0	1,155059925904125E+005	2,3700755E+000	2,3695633E+000	5,866823531189863E-003	1,000000000000000E+000	-3,5832720E-003	41	1,3901810E-005
2	1	0	1	0	1,158325266131905E+005	2,4680357E+000	2,4675193E+000	5,556672193344783E-003	1,000000000000000E+000	-1,6767227E-003	41	1,3711196E-005
2	1	0	1	0	1,161590606359675E+005	2,5659957E+000	2,5654762E+000	5,510291093968329E-003	1,000000000000000E+000	1,7311113E-004	41	1,4136521E-005
2	1	0	1	0	1,164855946587372E+005	2,6639557E+000	2,6634498E+000	5,711116289573000E-003	1,000000000000000E+000	2,0483907E-003	41	1,5211272E-005
2	1	0	1	1	1,168074636825917E+005	2,6394653E+000	2,6389883E+000	1,163119927428576E-003	1,000000000000000E+000	3,2315073E-003	42	3,0694598E-006
2	0	0	1	1	1,171339967053363E+005	2,5415056E+000	2,5410569E+000	-2,072947046757607E-004	1,000000000000000E+000	3,3054389E-003	43	-5,2674761E-007
2	0	0	1	1	1,174605294280828E+005	2,4435453E+000	2,4430532E+000	-7,727343737431724E-004	1,000000000000000E+000	3,0999300E-003	42	-1,8878312E-006
2	0	0	1	1	1,177870622508588E+005	2,3455853E+000	2,3451111E+000	-1,252613644341437E-003	1,000000000000000E+000	2,7252212E-003	42	-2,9375183E-006
2	0	0	1	1	1,181135954736391E+005	2,2476251E+000	2,2471416E+000	-1,774237602500005E-003	1,000000000000000E+000	2,1887755E-003	42	-3,9869633E-006
2	0	0	1	1	1,184401278964109E+005	2,1496654E+000	2,1491880E+000	-2,421441781932709E-003	1,000000000000000E+000	1,4642732E-003	42	-5,2041337E-006
2	0	0	1	1	1,187666607191537E+005	2,0517054E+000	2,0512319E+000	-3,254707785453642E-003	1,000000000000000E+000	4,9987272E-004	42	-6,6761604E-006
2	0	0	1	1	1,190931939418982E+005	1,9537452E+000	1,9532770E+000	-4,538510082389501E-003	1,000000000000000E+000	-7,9854467E-004	42	-8,8649676E-006
2	0	0	1	1	1,194160620655180E+005	1,8568850E+000	1,8564403E+000	-6,512722948790841E-003	2,000000000000000E+000	-2,6019739E-003	42	-1,2090482E-005
2	0	0	1	1	1,197425956882962E+005	1,7589247E+000	1,7585015E+000	-9,263512765047527E-003	2,000000000000000E+000	-5,2230498E-003	42	-1,6289901E-005
2	0	0	1	1	1,200691293110738E+005	1,6609648E+000	1,6604267E+000	-1,230610722110375E-002	2,000000000000000E+000	-8,6947493E-003	41	-2,0433390E-005
2	0	0	1	1	1,203956625338437E+005	1,5630049E+000	1,5625063E+000	-3,260759697901972E-002	2,000000000000000E+000	-1,5128302E-002	41	-5,0949577E-005
2	0	0	1	1	1,207221961565893E+005	1,4650446E+000	1,4645042E+000	-1,657552231428756E-001	2,000000000000000E+000	-4,6988241E-002	40	-2,4274923E-004
2	0	0	1	1	1,210487295793316E+005	1,3670847E+000	1,3665549E+000	-1,674504904869356E-001	2,000000000000000E+000	-1,0451718E-001	40	-2,2883028E-004
2	0	0	1	1	1,213752630020911E+005	1,2691246E+000	1,2685546E+000	-1,238342397167158E-001	2,000000000000000E+000	-1,5225494E-001	40	-1,5709049E-004
2	0	0	1	1	1,217017964248715E+005	1,1711648E+000	1,1706113E+000	-8,488036982464697E-002	2,000000000000000E+000	-1,8613921E-001	40	-9,9361918E-005
2	0	0	1	1	1,220283299476494E+005	1,0732046E+000	1,0726637E+000	-5,526427023938352E-002	2,000000000000000E+000	-2,0867403E-001	40	-5,9279973E-005
2	0	0	1	1	1,223508659713578E+005	1,0235248E+000	1,0229838E+000	-2,800978078428928E-002	2,000000000000000E+000	-2,2322577E-001	41	-2,8653552E-005
2	0	0	1	1	1,226773997941026E+005	1,1214849E+000	1,1208794E+000	-7,412912576099162E-003	2,000000000000000E+000	-2,2823375E-001	41	-8,3089808E-006
2	0	0	1	1	1,230039338168448E+005	1,2194450E+000	1,2188710E+000	-1,191611300531130E-003	2,000000000000000E+000	-2,2945258E-001	42	-1,4524204E-006
2	1	0	1	1	1,233304678396041E+005	1,3174050E+000	1,3167976E+000	1,555863511501632E-003	2,000000000000000E+000	-2,2933342E-001	42	2,0487573E-006
2	1	0	1	1	1,236570022623842E+005	1,4153651E+000	1,4147700E+000	4,072666693334476E-003	2,000000000000000E+000	-2,2842622E-001	42	5,7618868E-006
2	1	0	1	1	1,239835358851613E+005	1,5133250E+000	1,5127717E+000	1,000540075909190E-002	2,000000000000000E+000	-2,2628622E-001	42	1,5135887E-005
2	1	0	1	1	1,243100703079179E+005	1,6112849E+000	1,6106579E+000	6,537538621499750E-002	2,000000000000000E+000	-2,1817562E-001	41	1,0529738E-004
2	1	0	1	1	1,246366047306622E+005	1,7092452E+000	1,7086390E+000	3,185378616569066E-001	2,000000000000000E+000	-1,6503602E-001	40	5,4426619E-004
2	1	0	1	1	1,249631385534045E+005	1,8072051E+000	1,8066323E+000	2,308648296413480E-001	2,000000000000000E+000	-4,1477464E-002	40	4,1708787E-004
2	1	0	1	1	1,252896727761795E+005	1,9051652E+000	1,9046111E+000	1,657333808469941E-002	2,000000000000000E+000	-1,7399399E-002	41	3,1565763E-005
2	1	0	1	1	1,256162073989576E+005	2,0031252E+000	2,0025856E+000	9,980851923821130E-003	2,000000000000000E+000	-1,3316668E-002	41	1,9987510E-005
2	1	0	1	1	1,259427410217316E+005	2,1010852E+000	2,1005456E+000	7,344856050904208E-003	2,000000000000000E+000	-1,0553364E-002	41	1,5428206E-005
2	1	0	1	1	1,262692754444778E+005	2,1990454E+000	2,1985290E+000	6,609931991950840E-003	2,000000000000000E+000	-8,2208598E-003	41	1,4532127E-005
2	1	0	1	1	1,265958094672207E+005	2,2970052E+000	2,2964840E+000	6,015509101268648E-003	2,000000000000000E+000	-6,1066463E-003	41	1,3814521E-005
2	1	0	1	1	1,269223434899734E+005	2,3949656E+000	2,3944607E+000	5,557767648602094E-003	2,000000000000000E+000	-4,1671372E-003	41	1,3307857E-005
2	1	0	1	1	1,272488775127537E+005	2,4929252E+000	2,4924357E+000	5,211914155631603E-003	2,000000000000000E+000	-2,3556636E-003	41	1,2990361E-005
2	1	0	1	1	1,275754115355317E+005	2,5908852E+000	2,5903704E+000	5,122177304467512E-003	2,000000000000000E+000	-6,3000561E-004	41	1,3268336E-005
2	1	0	1	1	1,279019459582928E+005	2,6888454E+000	2,6883764E+000	5,414016712246464E-003	2,000000000000000E+000	1,1354225E-003	41	1,4554915E-005
2	1	0	1	0	1,282241477820690E+005	2,6144757E+000	2,6139836E+000	5,093576107680696E-004	2,000000000000000E+000	1,8320836E-003	43	1,3314525E-006
2	0	0	1	0	1,285506806048142E+005	2,5165155E+000	2,5161333E+000	-4,404824690317586E-004	2,000000000000000E+000	1,7884178E-003	43	-1,1083126E-006
2	0	0	1	0	1,288772130275667E+005	2,4185557E+000	2,4180958E+000	-9,000865494611029E-004	2,000000000000000E+000	1,5297447E-003	42	-2,1764956E-006
2	0	0	1	0	1,292037462503442E+005	2,3205960E+000	2,3201549E+000	-1,352693760454331E-003	2,000000000000000E+000	1,1191578E-003	42	-3,1384591E-006
2	0	0	1	0	1,295302786731240E+005	2,2226355E+000	2,2221859E+000	-1,861372480144051E-003	2,000000000000000E+000	5,5437401E-004	42	-4,1363155E-006
2	0	0	1	0	1,298568119958870E+005	2,1246755E+000	2,1242085E+000	-2,512748832082362E-003	2,000000000000000E+000	-1,9786785E-004	42	-5,3376025E-006
2	0	0	1	0	1,301833444186307E+005	2,0267153E+000	2,0262995E+000	-3,368714315046276E-003	2,000000000000000E+000	-1,1914405E-003	42	-6,8260242E-006
2	0	0	1	0	1,305098778413758E+005	1,9287556E+000	1,9283069E+000	-4,679989951306026E-003	2,000000000000000E+000	-2,5290940E-003	42	-9,0244575E-006
2	0	0	0	0	1,306672516041523E+005	1,8815254E+000	1,8810768E+000	-5,618252712069977E-003	2,000000000000000E+000	-3,3552151E-003	42	-1,0568365E-005