File: Dati/201027/CV_LTO-C_Al_slurrymia_01_1mVs_05_CV_C03.mpt
EC-Lab ASCII FILE
Nb header lines : 63

Cyclic Voltammetry

Run on channel : 3 (SN 6807)
User :
Electrode connection : standard
Ewe ctrl range : min = 0,00 V, max = 5,00 V
Ewe,I filtering : 50 kHz
Safety Limits :
	Do not start on E overload
Channel : Grounded
Acquisition started on : 10/27/2020 18:19:16
Saved on :
	File : CV_LTO-C_Al_slurrymia_01_1mVs_05_CV_C03.mpr
	Directory : C:\Users\labsuperfici\Desktop\Biologic\Users\Prisca Viviani\201027\
	Host : 10.78.33.0
Device : VSP-300 (SN 0638)
Address : USB
EC-Lab for windows v11.31 (software)
Internet server v11.30 (firmware)
Command interpretor v11.31 (firmware)
Electrode material :
Initial state :
Electrolyte :
Comments :
Cable : standard
Reference electrode : SCE Saturated Calomel Electrode (0,241 V)
Electrode surface area : 0,001 cm²
Characteristic mass : 0,001 g
Equivalent Weight : 0,000 g/eq.
Density : 0,000 g/cm3
Cycle Definition : Charge/Discharge alternance
Ei (V)              0,000
vs.                 Eoc
dE/dt               0,500
dE/dt unit          mV/s
E1 (V)              1,000
vs.                 Ref
Step percent        50
N                   10
E range min (V)     0,000
E range max (V)     5,000
I Range             Auto
I Range min         Unset
I Range max         Unset
I Range init        Unset
Bandwidth           8
E2 (V)              3,000
vs.                 Ref
nc cycles           2
Reverse Scan        1
Ef (V)              0,000
vs.                 Eoc

Modify on : 10/28/2020 10:35
nc cycles           1

Modify on : 10/28/2020 10:37
E2 (V)              2,700

mode	ox/red	error	control changes	counter inc.	time/s	control/V	Ewe/V	<I>/mA	cycle number	(Q-Qo)/C	I Range	P/W
2	0	0	1	0	1,476679299050733E+005	1,8815254E+000	1,8810043E+000	-8,134127594530582E-003	1,000000000000000E+000	0,0000000E+000	41	-1,5300329E-005
2	0	0	1	0	1,478629504355858E+005	1,7840145E+000	1,7834791E+000	-1,319240019024905E-002	1,000000000000000E+000	-2,1047955E-003	41	-2,3528370E-005
2	0	0	1	0	1,480588704662398E+005	1,6860546E+000	1,6855197E+000	-1,794606052521436E-002	1,000000000000000E+000	-5,1992261E-003	41	-3,0248439E-005
2	0	0	1	0	1,482547906968943E+005	1,5880945E+000	1,5875698E+000	-3,922173997018685E-002	1,000000000000000E+000	-1,0218199E-002	41	-6,2267252E-005
2	0	0	1	0	1,484507107275492E+005	1,4901344E+000	1,4896013E+000	-2,315683270689397E-001	1,000000000000000E+000	-3,1372204E-002	40	-3,4494448E-004
2	0	0	1	0	1,486466307582036E+005	1,3921744E+000	1,3916334E+000	-2,633691747351097E-001	1,000000000000000E+000	-8,4650390E-002	40	-3,6651333E-004
2	0	0	1	0	1,488425509888586E+005	1,2942145E+000	1,2936721E+000	-2,042917610694024E-001	1,000000000000000E+000	-1,3040474E-001	40	-2,6428656E-004
2	0	0	1	0	1,490384708195115E+005	1,1962545E+000	1,1956666E+000	-1,530917243024681E-001	1,000000000000000E+000	-1,6529143E-001	40	-1,8304665E-004
2	0	0	1	0	1,492343910501651E+005	1,0982943E+000	1,0977166E+000	-1,126249047724068E-001	1,000000000000000E+000	-1,9121403E-001	40	-1,2363022E-004
2	0	0	1	0	1,494301110807871E+005	1,0004343E+000	9,9982697E-001	-8,513076771276185E-002	1,000000000000000E+000	-2,1026833E-001	40	-8,5116037E-005
2	0	0	1	0	1,496240328111295E+005	1,0964950E+000	1,0959305E+000	-2,734730978810748E-002	1,000000000000000E+000	-2,1952958E-001	41	-2,9970750E-005
2	0	0	1	0	1,498199531417829E+005	1,1944551E+000	1,1938696E+000	-1,002710130733090E-002	1,000000000000000E+000	-2,2291484E-001	41	-1,1971051E-005
2	0	0	1	0	1,500158734724366E+005	1,2924149E+000	1,2918390E+000	-2,086087181982652E-003	1,000000000000000E+000	-2,2399685E-001	42	-2,6948887E-006
2	1	0	1	0	1,502119937031218E+005	1,3904752E+000	1,3898230E+000	3,203936731453888E-003	1,000000000000000E+000	-2,2386155E-001	42	4,4529047E-006
2	1	0	1	0	1,504079139337763E+005	1,4884350E+000	1,4878476E+000	1,073063587501388E-002	1,000000000000000E+000	-2,2256057E-001	41	1,5965550E-005
2	1	0	1	0	1,506038342644302E+005	1,5863951E+000	1,5857877E+000	4,787947045294549E-002	1,000000000000000E+000	-2,1817346E-001	41	7,5926670E-005
2	1	0	1	0	1,507997546950849E+005	1,6843553E+000	1,6837424E+000	3,616300967207930E-001	1,000000000000000E+000	-1,8307573E-001	40	6,0889195E-004
2	1	0	1	0	1,509956749257389E+005	1,7823153E+000	1,7816651E+000	6,228933091579894E-001	1,000000000000000E+000	-5,6391537E-002	40	1,1097873E-003
2	1	0	1	0	1,511915951563930E+005	1,8802755E+000	1,8796890E+000	3,962212522388653E-002	1,000000000000000E+000	-1,7238012E-002	41	7,4477270E-005
2	1	0	1	0	1,513875153870462E+005	1,9782355E+000	1,9776584E+000	1,832311716720197E-002	1,000000000000000E+000	-1,1952911E-002	41	3,6236866E-005
2	1	0	1	0	1,515834359176997E+005	2,0761955E+000	2,0756471E+000	1,384072907412323E-002	1,000000000000000E+000	-8,8297259E-003	41	2,8728469E-005
2	1	0	1	0	1,517793563483532E+005	2,1741555E+000	2,1736047E+000	1,032422223739030E-002	1,000000000000000E+000	-6,4159627E-003	41	2,2440778E-005
2	1	0	1	0	1,519752767790076E+005	2,2721155E+000	2,2715952E+000	9,241231285011253E-003	1,000000000000000E+000	-4,4524623E-003	41	2,0992336E-005
2	1	0	1	0	1,521711974096620E+005	2,3700755E+000	2,3695426E+000	8,496543458659252E-003	1,000000000000000E+000	-2,6630738E-003	41	2,0132922E-005
2	1	0	1	0	1,523671180403167E+005	2,4680352E+000	2,4675021E+000	8,107700222300895E-003	1,000000000000000E+000	-9,8604581E-004	41	2,0005768E-005
2	1	0	1	0	1,525630384709705E+005	2,5659955E+000	2,5654745E+000	8,107463746748547E-003	1,000000000000000E+000	6,5045117E-004	41	2,0799491E-005
2	1	0	1	0	1,527589589016251E+005	2,6639555E+000	2,6634421E+000	8,498517731246380E-003	1,000000000000000E+000	2,3242822E-003	41	2,2635310E-005
2	1	0	1	1	1,529520807318417E+005	2,6394656E+000	2,6389558E+000	1,895643134078175E-003	1,000000000000000E+000	3,3961169E-003	42	5,0025187E-006
2	0	0	1	1	1,531482007625254E+005	2,5414054E+000	2,5409067E+000	-2,562833831961347E-004	1,000000000000000E+000	3,4716267E-003	42	-6,5119218E-007
2	0	0	1	1	1,533441209931797E+005	2,4434454E+000	2,4429455E+000	-1,268313798451919E-003	1,000000000000000E+000	3,2648467E-003	42	-3,0984215E-006
2	0	0	1	1	1,535400411238340E+005	2,3454857E+000	2,3449917E+000	-2,024284744171132E-003	1,000000000000000E+000	2,8914099E-003	42	-4,7469307E-006
2	0	0	1	1	1,537359610544886E+005	2,2475255E+000	2,2469993E+000	-2,834936614843136E-003	1,000000000000000E+000	2,3684225E-003	42	-6,3701004E-006
2	0	0	1	1	1,539318809851427E+005	2,1495655E+000	2,1490717E+000	-3,835065106555399E-003	1,000000000000000E+000	1,6682632E-003	42	-8,2418301E-006
2	0	0	1	1	1,541278014157964E+005	2,0516052E+000	2,0511210E+000	-5,146074556404071E-003	1,000000000000000E+000	7,4093288E-004	42	-1,0555222E-005
2	0	0	1	1	1,543237214464517E+005	1,9536455E+000	1,9531666E+000	-7,188405827654826E-003	1,000000000000000E+000	-5,0307915E-004	42	-1,4040154E-005
2	0	0	1	1	1,545172423767284E+005	1,8568847E+000	1,8563172E+000	-1,027517068734121E-002	2,000000000000000E+000	-2,2259185E-003	41	-1,9073976E-005
2	0	0	1	1	1,547131625073832E+005	1,7589248E+000	1,7583690E+000	-1,438490981313365E-002	2,000000000000000E+000	-4,7017797E-003	41	-2,5293979E-005
2	0	0	1	1	1,549090827380382E+005	1,6609648E+000	1,6603957E+000	-2,019330553187065E-002	2,000000000000000E+000	-8,0174794E-003	41	-3,3528879E-005
2	0	0	1	1	1,551050026686918E+005	1,5630047E+000	1,5625045E+000	-5,823888492829132E-002	2,000000000000000E+000	-1,4702763E-002	41	-9,0998525E-005
2	0	0	1	1	1,553009227993453E+005	1,4650446E+000	1,4645087E+000	-3,166985310099637E-001	2,000000000000000E+000	-5,2669581E-002	40	-4,6380775E-004
2	0	0	1	1	1,554968429299984E+005	1,3670846E+000	1,3665273E+000	-2,581511738803021E-001	2,000000000000000E+000	-1,1122623E-001	40	-3,5277064E-004
2	0	0	1	1	1,556927629606521E+005	1,2691245E+000	1,2685151E+000	-1,892949560970951E-001	2,000000000000000E+000	-1,5476644E-001	40	-2,4012351E-004
2	0	0	1	1	1,558886829913058E+005	1,1711648E+000	1,1705884E+000	-1,316194246392348E-001	2,000000000000000E+000	-1,8607028E-001	40	-1,5407217E-004
2	0	0	1	1	1,560846031219601E+005	1,0732045E+000	1,0726112E+000	-8,823089316870873E-002	2,000000000000000E+000	-2,0731753E-001	40	-9,4637442E-005
2	0	0	1	1	1,562781250522395E+005	1,0235249E+000	1,0229449E+000	-4,588829774813824E-002	2,000000000000000E+000	-2,2148867E-001	41	-4,6941201E-005
2	0	0	1	1	1,564740451828931E+005	1,1214849E+000	1,1208835E+000	-1,224623564852143E-002	2,000000000000000E+000	-2,2642757E-001	41	-1,3726603E-005
2	0	0	1	1	1,566699656135465E+005	1,2194451E+000	1,2188454E+000	-1,846441247345749E-003	2,000000000000000E+000	-2,2761801E-001	42	-2,2505264E-006
2	1	0	1	1	1,568658857442010E+005	1,3174047E+000	1,3167435E+000	2,818047639054147E-003	2,000000000000000E+000	-2,2745633E-001	42	3,7106458E-006
2	1	0	1	1	1,570618060748554E+005	1,4153651E+000	1,4146974E+000	7,020290527684089E-003	2,000000000000000E+000	-2,2649637E-001	42	9,9315866E-006
2	1	0	1	1	1,572577263055090E+005	1,5133251E+000	1,5126764E+000	1,615237430607983E-002	2,000000000000000E+000	-2,2435717E-001	41	2,4433315E-005
2	1	0	1	1	1,574536467361636E+005	1,6112851E+000	1,6106489E+000	1,511500761957112E-001	2,000000000000000E+000	-2,1468689E-001	40	2,4344970E-004
2	1	0	1	1	1,576495671668183E+005	1,7092451E+000	1,7085572E+000	8,409615686426308E-001	2,000000000000000E+000	-1,3018826E-001	40	1,4368310E-003
2	1	0	1	1	1,578454873974733E+005	1,8072051E+000	1,8065683E+000	7,500900713150305E-002	2,000000000000000E+000	-2,3343511E-002	40	1,3550889E-004
2	1	0	1	1	1,580414077281263E+005	1,9051652E+000	1,9045125E+000	2,450927180494837E-002	2,000000000000000E+000	-1,5364892E-002	41	4,6678215E-005
2	1	0	1	1	1,582373282587801E+005	2,0031252E+000	2,0025089E+000	1,564583208673592E-002	2,000000000000000E+000	-1,1600732E-002	41	3,1330917E-005
2	1	0	1	1	1,584332483894336E+005	2,1010852E+000	2,1004980E+000	1,196338285812004E-002	2,000000000000000E+000	-8,8223191E-003	41	2,5129062E-005
2	1	0	1	1	1,586291690200868E+005	2,1990454E+000	2,1984489E+000	9,934645174189381E-003	2,000000000000000E+000	-6,6560763E-003	41	2,1840809E-005
2	1	0	1	1	1,588250897507411E+005	2,2970054E+000	2,2964025E+000	8,938535543850101E-003	2,000000000000000E+000	-4,7333888E-003	41	2,0526475E-005
2	1	0	1	1	1,590210101813953E+005	2,3949654E+000	2,3943646E+000	8,324710819859360E-003	2,000000000000000E+000	-2,9721686E-003	41	1,9932393E-005
2	1	0	1	1	1,592169305120502E+005	2,4929254E+000	2,4923291E+000	8,126948795965760E-003	2,000000000000000E+000	-1,2924842E-003	41	2,0255031E-005
2	1	0	1	1	1,594128511427045E+005	2,5908856E+000	2,5902870E+000	8,378109697139077E-003	2,000000000000000E+000	3,9007017E-004	41	2,1701708E-005
2	1	0	1	1	1,596087718733586E+005	2,6888454E+000	2,6882408E+000	9,117962151704601E-003	2,000000000000000E+000	2,1662218E-003	41	2,4511277E-005
2	1	0	1	0	1,598020930036053E+005	2,6144757E+000	2,6138809E+000	1,083986145313117E-003	2,000000000000000E+000	2,8809272E-003	42	2,8334107E-006
2	0	0	1	0	1,599980132342591E+005	2,5165155E+000	2,5159483E+000	-6,306900478154527E-004	2,000000000000000E+000	2,8351569E-003	42	-1,5867836E-006
2	0	0	1	0	1,601939331649127E+005	2,4185557E+000	2,4180191E+000	-1,574716191058072E-003	2,000000000000000E+000	2,5483849E-003	42	-3,8076937E-006
2	0	0	1	0	1,603898532955674E+005	2,3205957E+000	2,3200381E+000	-2,348922019027005E-003	2,000000000000000E+000	2,0997445E-003	42	-5,4495886E-006
2	0	0	1	0	1,605857733262219E+005	2,2226357E+000	2,2220871E+000	-3,240905856905452E-003	2,000000000000000E+000	1,4898321E-003	42	-7,2015750E-006
2	0	0	1	0	1,607816934568761E+005	2,1246758E+000	2,1241286E+000	-4,396100144170106E-003	2,000000000000000E+000	6,8169326E-004	42	-9,3378821E-006
2	0	0	1	0	1,609776133875307E+005	2,0267155E+000	2,0261924E+000	-5,996417232234647E-003	2,000000000000000E+000	-3,8943792E-004	42	-1,2149895E-005
2	0	0	1	0	1,611735337181846E+005	1,9287554E+000	1,9282520E+000	-8,579991794724736E-003	2,000000000000000E+000	-1,8626836E-003	42	-1,6544385E-005
2	0	0	0	0	1,612679580329563E+005	1,8815254E+000	1,8809052E+000	-1,007410889556899E-002	2,000000000000000E+000	-2,7716842E-003	41	-1,8948444E-005