File: Dati/201027/CV_LTO-C_Al_slurrymia_01_1mVs_02_CV_C03.mpt
EC-Lab ASCII FILE
Nb header lines : 63

Cyclic Voltammetry

Run on channel : 3 (SN 6807)
User :
Electrode connection : standard
Ewe ctrl range : min = 0,00 V, max = 5,00 V
Ewe,I filtering : 50 kHz
Safety Limits :
	Do not start on E overload
Channel : Grounded
Acquisition started on : 10/27/2020 18:19:16
Saved on :
	File : CV_LTO-C_Al_slurrymia_01_1mVs_02_CV_C03.mpr
	Directory : C:\Users\labsuperfici\Desktop\Biologic\Users\Prisca Viviani\201027\
	Host : 10.78.33.0
Device : VSP-300 (SN 0638)
Address : USB
EC-Lab for windows v11.31 (software)
Internet server v11.30 (firmware)
Command interpretor v11.31 (firmware)
Electrode material :
Initial state :
Electrolyte :
Comments :
Cable : standard
Reference electrode : SCE Saturated Calomel Electrode (0,241 V)
Electrode surface area : 0,001 cm²
Characteristic mass : 0,001 g
Equivalent Weight : 0,000 g/eq.
Density : 0,000 g/cm3
Cycle Definition : Charge/Discharge alternance
Ei (V)              0,000
vs.                 Eoc
dE/dt               0,200
dE/dt unit          mV/s
E1 (V)              1,000
vs.                 Ref
Step percent        50
N                   10
E range min (V)     0,000
E range max (V)     5,000
I Range             Auto
I Range min         Unset
I Range max         Unset
I Range init        Unset
Bandwidth           8
E2 (V)              3,000
vs.                 Ref
nc cycles           2
Reverse Scan        1
Ef (V)              0,000
vs.                 Eoc

Modify on : 10/28/2020 10:35
nc cycles           1

Modify on : 10/28/2020 10:37
E2 (V)              2,700

mode	ox/red	error	control changes	counter inc.	time/s	control/V	Ewe/V	<I>/mA	cycle number	(Q-Qo)/C	I Range	P/W
2	0	0	0	0	7,400007360831974E+004	1,8815254E+000	1,8809471E+000	-2,845407463610172E-003	1,000000000000000E+000	0,0000000E+000	42	-5,3520612E-006
2	0	0	1	0	7,449262229177891E+004	1,7830150E+000	1,7825112E+000	-6,873066015620714E-003	1,000000000000000E+000	-2,6204956E-003	42	-1,2251317E-005
2	0	0	1	0	7,498741987475683E+004	1,6840554E+000	1,6836061E+000	-8,371761377128306E-003	1,000000000000000E+000	-6,4205332E-003	42	-1,4094749E-005
2	0	0	1	0	7,548221755772596E+004	1,5850958E+000	1,5845196E+000	-1,776230140394578E-002	1,000000000000000E+000	-1,2153000E-002	41	-2,8144716E-005
2	0	0	1	0	7,597701544065357E+004	1,4861362E+000	1,4856104E+000	-1,205464218178198E-001	1,000000000000000E+000	-3,9277866E-002	40	-1,7908501E-004
2	0	0	1	0	7,647181282364501E+004	1,3871765E+000	1,3866104E+000	-1,599636927976924E-001	1,000000000000000E+000	-1,1627736E-001	40	-2,2180732E-004
2	0	0	1	0	7,696661070659664E+004	1,2882171E+000	1,2876620E+000	-9,343729644553256E-002	1,000000000000000E+000	-1,8027115E-001	40	-1,2031566E-004
2	0	0	1	0	7,746140808953741E+004	1,1892573E+000	1,1887276E+000	-4,103671837515377E-002	1,000000000000000E+000	-2,1209313E-001	41	-4,8781480E-005
2	0	0	1	0	7,795620577253308E+004	1,0902977E+000	1,0897589E+000	-2,211714384346611E-002	1,000000000000000E+000	-2,2664668E-001	41	-2,4102354E-005
2	0	0	1	0	7,844550685677707E+004	1,0075314E+000	1,0069395E+000	-1,692253590404713E-002	1,000000000000000E+000	-2,3711830E-001	41	-1,7039971E-005
2	0	0	1	0	7,894030563971523E+004	1,1064910E+000	1,1058934E+000	-4,202250517369287E-005	1,000000000000000E+000	-2,3986709E-001	43	-4,6472412E-008
2	1	0	1	0	7,943510512271058E+004	1,2054507E+000	1,2048527E+000	2,321939894777872E-003	1,000000000000000E+000	-2,3909764E-001	42	2,7975955E-006
2	1	0	1	0	7,992990420564683E+004	1,3044103E+000	1,3037622E+000	2,920074450310180E-003	1,000000000000000E+000	-2,3775770E-001	42	3,8070827E-006
2	1	0	1	0	8,042470338860247E+004	1,4033699E+000	1,4027578E+000	4,263206096237343E-003	1,000000000000000E+000	-2,3602432E-001	42	5,9802455E-006
2	1	0	1	0	8,091950217159209E+004	1,5023296E+000	1,5016860E+000	9,012591618009852E-003	1,000000000000000E+000	-2,3289312E-001	42	1,3534082E-005
2	1	0	1	0	8,141430145451683E+004	1,6012893E+000	1,6006417E+000	6,725218561798441E-002	1,000000000000000E+000	-2,2189263E-001	41	1,0764666E-004
2	1	0	1	0	8,190910073748976E+004	1,7002488E+000	1,6996611E+000	2,218151950759020E-001	1,000000000000000E+000	-1,4714508E-001	40	3,7701067E-004
2	1	0	1	0	8,240389982046362E+004	1,7992084E+000	1,7986460E+000	9,011627646296344E-002	1,000000000000000E+000	-3,7581377E-002	40	1,6208728E-004
2	1	0	1	0	8,289919870327087E+004	1,8982681E+000	1,8976899E+000	1,301529902869526E-002	1,000000000000000E+000	-2,1880826E-002	41	2,4699002E-005
2	1	0	1	0	8,339399778625998E+004	1,9972278E+000	1,9966545E+000	6,335297090995659E-003	1,000000000000000E+000	-1,7553484E-002	41	1,2649400E-005
2	1	0	1	0	8,388879756921413E+004	2,0961871E+000	2,0956104E+000	5,649684517151251E-003	1,000000000000000E+000	-1,4582868E-002	41	1,1839537E-005
2	1	0	1	0	8,438359605215327E+004	2,1951470E+000	2,1945891E+000	5,165186554556014E-003	1,000000000000000E+000	-1,1860274E-002	41	1,1335463E-005
2	1	0	1	0	8,487889563503000E+004	2,2942064E+000	2,2936060E+000	4,684032945260555E-003	1,000000000000000E+000	-9,3805734E-003	42	1,0743326E-005
2	1	0	1	0	8,537369411796459E+004	2,3931661E+000	2,3925824E+000	4,315793865691406E-003	1,000000000000000E+000	-7,1112681E-003	42	1,0325893E-005
2	1	0	1	0	8,586849360092334E+004	2,4921255E+000	2,4915111E+000	4,111718190163829E-003	1,000000000000000E+000	-4,9944897E-003	42	1,0244392E-005
2	1	0	1	0	8,636329268391058E+004	2,5910852E+000	2,5904901E+000	4,152122425404435E-003	1,000000000000000E+000	-2,9173072E-003	42	1,0756032E-005
2	1	0	1	0	8,685809216683428E+004	2,6900449E+000	2,6894433E+000	4,366244818370349E-003	1,000000000000000E+000	-7,7322876E-004	42	1,1742768E-005
2	1	0	1	1	8,734539235157100E+004	2,6124768E+000	2,6118913E+000	3,951682879707238E-004	1,000000000000000E+000	4,0611627E-005	43	1,0321367E-006
2	0	0	1	1	8,784068843444536E+004	2,5134168E+000	2,5128765E+000	-2,896970964221864E-004	1,000000000000000E+000	9,5941805E-006	43	-7,2797303E-007
2	0	0	1	1	8,833548511737469E+004	2,4144573E+000	2,4139798E+000	-7,130613528737164E-004	1,000000000000000E+000	-2,7468463E-004	43	-1,7213157E-006
2	0	0	1	1	8,883028040034272E+004	2,3154976E+000	2,3149562E+000	-1,085554019833408E-003	1,000000000000000E+000	-7,5560337E-004	42	-2,5130100E-006
2	0	0	1	1	8,932507708332140E+004	2,2165380E+000	2,2159636E+000	-1,508796809171859E-003	1,000000000000000E+000	-1,4347642E-003	42	-3,3434387E-006
2	0	0	1	1	8,981987296624552E+004	2,1175785E+000	2,1170325E+000	-2,064162140204806E-003	1,000000000000000E+000	-2,3533429E-003	42	-4,3698983E-006
2	0	0	1	1	9,031466904923157E+004	2,0186188E+000	2,0180733E+000	-2,882694339217120E-003	1,000000000000000E+000	-3,6023555E-003	42	-5,8174887E-006
2	0	0	1	1	9,080946673219232E+004	1,9196594E+000	1,9191128E+000	-4,097172840237751E-003	1,000000000000000E+000	-5,3594508E-003	42	-7,8629364E-006
2	0	0	1	1	9,129826691654674E+004	1,8218993E+000	1,8213731E+000	-5,932849909469497E-003	2,000000000000000E+000	-7,8324378E-003	42	-1,0805933E-005
2	0	0	1	1	9,179306449952768E+004	1,7229396E+000	1,7224731E+000	-7,282827330637509E-003	2,000000000000000E+000	-1,1184909E-002	42	-1,2544475E-005
2	0	0	1	1	9,228786248249328E+004	1,6239799E+000	1,6234139E+000	-1,174963325642231E-002	2,000000000000000E+000	-1,5564119E-002	41	-1,9074518E-005
2	0	0	1	1	9,278266006542277E+004	1,5250202E+000	1,5245230E+000	-6,333080048534701E-002	2,000000000000000E+000	-2,8022397E-002	41	-9,6549265E-005
2	0	0	1	1	9,327745754841529E+004	1,4260607E+000	1,4255050E+000	-1,674521266872939E-001	2,000000000000000E+000	-9,2802726E-002	40	-2,3870385E-004
2	0	0	1	1	9,377225543136289E+004	1,3271011E+000	1,3265135E+000	-1,252462858332073E-001	2,000000000000000E+000	-1,6880785E-001	40	-1,6614089E-004
2	0	0	1	1	9,426705311430793E+004	1,2281414E+000	1,2275262E+000	-5,402316541648793E-002	2,000000000000000E+000	-2,1204591E-001	40	-6,6314853E-005
2	0	0	1	1	9,476185069730249E+004	1,1291817E+000	1,1286104E+000	-2,229967188447368E-002	2,000000000000000E+000	-2,2936681E-001	41	-2,5167641E-005
2	0	0	1	1	9,525664818023340E+004	1,0302221E+000	1,0296402E+000	-1,894342656504955E-002	2,000000000000000E+000	-2,3881750E-001	41	-1,9504914E-005
2	0	0	1	1	9,574545026460313E+004	1,0675069E+000	1,0668998E+000	-1,522325096862149E-003	2,000000000000000E+000	-2,4440117E-001	42	-1,6241682E-006
2	1	0	1	1	9,624024944759818E+004	1,1664665E+000	1,1658405E+000	2,550826685251358E-003	2,000000000000000E+000	-2,4377197E-001	42	2,9738571E-006
2	1	0	1	1	9,673504853053321E+004	1,2654262E+000	1,2647721E+000	3,069601525940050E-003	2,000000000000000E+000	-2,4231218E-001	42	3,8823464E-006
2	1	0	1	1	9,722984771349072E+004	1,3643857E+000	1,3637379E+000	3,652560958673598E-003	2,000000000000000E+000	-2,4065119E-001	42	4,9811360E-006
2	1	0	1	1	9,772464679647831E+004	1,4633455E+000	1,4626933E+000	6,278391737827807E-003	2,000000000000000E+000	-2,3828903E-001	42	9,1833617E-006
2	1	0	1	1	9,821944597940310E+004	1,5623051E+000	1,5617141E+000	1,812221287052764E-002	2,000000000000000E+000	-2,3323531E-001	41	2,8301714E-005
2	1	0	1	1	9,871424476237851E+004	1,6612647E+000	1,6606535E+000	1,662457739058690E-001	2,000000000000000E+000	-1,9217442E-001	40	2,7607661E-004
2	1	0	1	1	9,920904414534941E+004	1,7602243E+000	1,7596129E+000	2,204671024446805E-001	2,000000000000000E+000	-5,9474763E-002	40	3,8793677E-004
2	1	0	1	1	9,970384332827569E+004	1,8591839E+000	1,8585976E+000	1,196601919636267E-002	2,000000000000000E+000	-2,6799753E-002	41	2,2240016E-005
2	1	0	1	1	1,001986424112660E+005	1,9581437E+000	1,9575732E+000	6,345125672663890E-003	2,000000000000000E+000	-2,2406159E-002	41	1,2421047E-005
2	1	0	1	1	1,006934427942189E+005	2,0571034E+000	2,0565367E+000	5,583812857812710E-003	2,000000000000000E+000	-1,9429106E-002	41	1,1483316E-005
2	1	0	1	1	1,011882418771576E+005	2,1560626E+000	2,1555195E+000	5,093785302246828E-003	2,000000000000000E+000	-1,6722744E-002	41	1,0979754E-005
2	1	0	1	1	1,016835408600358E+005	2,2551222E+000	2,2545338E+000	4,620791211423780E-003	2,000000000000000E+000	-1,4260924E-002	42	1,0417730E-005
2	1	0	1	1	1,021783399429698E+005	2,3540821E+000	2,3535261E+000	4,199144898524083E-003	2,000000000000000E+000	-1,2028160E-002	42	9,8827968E-006
2	1	0	1	1	1,026731394259277E+005	2,4530418E+000	2,4524558E+000	3,932849680221603E-003	2,000000000000000E+000	-9,9670272E-003	42	9,6451395E-006
2	1	0	1	1	1,031679379089155E+005	2,5520012E+000	2,5514188E+000	3,884786837751231E-003	2,000000000000000E+000	-7,9840496E-003	42	9,9117178E-006
2	1	0	1	1	1,036627373918400E+005	2,6509609E+000	2,6504068E+000	4,033191538819765E-003	2,000000000000000E+000	-5,9777531E-003	42	1,0689599E-005
2	1	0	1	0	1,041505389764577E+005	2,6514606E+000	2,6509349E+000	1,048571566249667E-003	2,000000000000000E+000	-4,4918102E-003	42	2,7796950E-006
2	0	0	1	0	1,046453348594499E+005	2,5525007E+000	2,5519650E+000	-5,011076496020289E-005	2,000000000000000E+000	-4,3607298E-003	44	-1,2788092E-007
2	0	0	1	0	1,051401309423794E+005	2,4535415E+000	2,4530694E+000	-5,116214803495287E-004	2,000000000000000E+000	-4,5492267E-003	43	-1,2550430E-006
2	0	0	1	0	1,056349268253476E+005	2,3545818E+000	2,3540976E+000	-8,505543242337424E-004	2,000000000000000E+000	-4,9330294E-003	42	-2,0022878E-006
2	0	0	1	0	1,061297235083268E+005	2,2556224E+000	2,2551134E+000	-1,240501057355903E-003	2,000000000000000E+000	-5,5019045E-003	42	-2,7974704E-006
2	0	0	1	0	1,066245193912513E+005	2,1566627E+000	2,1561575E+000	-1,705369428045805E-003	2,000000000000000E+000	-6,2793121E-003	42	-3,6770450E-006
2	0	0	1	0	1,071193161742366E+005	2,0577028E+000	2,0571973E+000	-2,341083320458834E-003	2,000000000000000E+000	-7,3242160E-003	42	-4,8160705E-006
2	0	0	1	0	1,076141126571982E+005	1,9587432E+000	1,9582422E+000	-3,343255913999171E-003	2,000000000000000E+000	-8,7615121E-003	42	-6,5469048E-006
2	0	0	0	0	1,080001113658631E+005	1,8815254E+000	1,8810730E+000	-4,480447258833661E-003	2,000000000000000E+000	-1,0293627E-002	42	-8,4280482E-006