File: Dati/201027/CV_LTO-C_Al_slurrymia_01_1mVs_08_CV_C03.mpt
EC-Lab ASCII FILE
Nb header lines : 63

Cyclic Voltammetry

Run on channel : 3 (SN 6807)
User :
Electrode connection : standard
Ewe ctrl range : min = 0,00 V, max = 5,00 V
Ewe,I filtering : 50 kHz
Safety Limits :
	Do not start on E overload
Channel : Grounded
Acquisition started on : 10/27/2020 18:19:16
Saved on :
	File : CV_LTO-C_Al_slurrymia_01_1mVs_08_CV_C03.mpr
	Directory : C:\Users\labsuperfici\Desktop\Biologic\Users\Prisca Viviani\201027\
	Host : 10.78.33.0
Device : VSP-300 (SN 0638)
Address : USB
EC-Lab for windows v11.31 (software)
Internet server v11.30 (firmware)
Command interpretor v11.31 (firmware)
Electrode material :
Initial state :
Electrolyte :
Comments :
Cable : standard
Reference electrode : SCE Saturated Calomel Electrode (0,241 V)
Electrode surface area : 0,001 cm²
Characteristic mass : 0,001 g
Equivalent Weight : 0,000 g/eq.
Density : 0,000 g/cm3
Cycle Definition : Charge/Discharge alternance
Ei (V)              0,000
vs.                 Eoc
dE/dt               0,800
dE/dt unit          mV/s
E1 (V)              1,000
vs.                 Ref
Step percent        50
N                   10
E range min (V)     0,000
E range max (V)     5,000
I Range             Auto
I Range min         Unset
I Range max         Unset
I Range init        Unset
Bandwidth           8
E2 (V)              3,000
vs.                 Ref
nc cycles           2
Reverse Scan        1
Ef (V)              0,000
vs.                 Eoc

Modify on : 10/28/2020 10:35
nc cycles           1

Modify on : 10/28/2020 10:37
E2 (V)              2,700

mode	ox/red	error	control changes	counter inc.	time/s	control/V	Ewe/V	<I>/mA	cycle number	(Q-Qo)/C	I Range	P/W
2	0	0	0	0	1,823163525262261E+005	1,8815254E+000	1,8809050E+000	-1,423935219645500E-002	1,000000000000000E+000	0,0000000E+000	41	-2,6782869E-005
2	0	0	1	0	1,824394898454910E+005	1,7830149E+000	1,7824538E+000	-1,948491124304277E-002	1,000000000000000E+000	-2,0325102E-003	41	-3,4730954E-005
2	0	0	1	0	1,825631893648460E+005	1,6840554E+000	1,6835008E+000	-2,731037893084393E-002	1,000000000000000E+000	-4,9317856E-003	41	-4,5977045E-005
2	0	0	1	0	1,826868889842008E+005	1,5850959E+000	1,5845767E+000	-6,502383848930182E-002	1,000000000000000E+000	-1,0054429E-002	41	-1,0303526E-004
2	0	0	1	0	1,828105886035562E+005	1,4861362E+000	1,4856012E+000	-3,642108997672229E-001	1,000000000000000E+000	-3,2169104E-002	40	-5,4107216E-004
2	0	0	1	0	1,829342881229087E+005	1,3871765E+000	1,3866298E+000	-3,683292906455491E-001	1,000000000000000E+000	-8,1244186E-002	40	-5,1073637E-004
2	0	0	1	0	1,830579877422620E+005	1,2882168E+000	1,2876669E+000	-2,704120009168909E-001	1,000000000000000E+000	-1,2046742E-001	40	-3,4820058E-004
2	0	0	1	0	1,831816871616176E+005	1,1892573E+000	1,1886915E+000	-2,060463897944718E-001	1,000000000000000E+000	-1,4966771E-001	40	-2,4492558E-004
2	0	0	1	0	1,833053867809733E+005	1,0902976E+000	1,0897404E+000	-1,663494903664717E-001	1,000000000000000E+000	-1,7253268E-001	40	-1,8127776E-004
2	0	0	1	0	1,834277126001115E+005	1,0075314E+000	1,0069314E+000	-1,285369552655273E-001	1,000000000000000E+000	-1,9130191E-001	40	-1,2942791E-004
2	0	0	1	0	1,835514122194648E+005	1,1064911E+000	1,1059039E+000	-6,559767263852057E-002	1,000000000000000E+000	-2,0250231E-001	40	-7,2544717E-005
2	0	0	1	0	1,836751118388190E+005	1,2054507E+000	1,2048776E+000	-3,814510604550142E-002	1,000000000000000E+000	-2,0873567E-001	41	-4,5960183E-005
2	0	0	1	0	1,837988114581740E+005	1,3044103E+000	1,3037966E+000	-2,121797972655096E-002	1,000000000000000E+000	-2,1231940E-001	41	-2,7663931E-005
2	0	0	1	0	1,839225111775296E+005	1,4033700E+000	1,4027648E+000	-7,997337357036977E-003	1,000000000000000E+000	-2,1409549E-001	41	-1,1218383E-005
2	1	0	1	0	1,840463356969021E+005	1,5024296E+000	1,5017544E+000	8,918616738619586E-003	1,000000000000000E+000	-2,1412016E-001	42	1,3393572E-005
2	1	0	1	0	1,841700353162545E+005	1,6013892E+000	1,6007760E+000	1,211181411314977E-001	1,000000000000000E+000	-2,0940852E-001	40	1,9388301E-004
2	1	0	1	0	1,842937350356104E+005	1,7003490E+000	1,6996515E+000	7,327849387599956E-001	1,000000000000000E+000	-1,6286713E-001	40	1,2454790E-003
2	1	0	1	0	1,844174346549655E+005	1,7993083E+000	1,7987282E+000	6,004238978687635E-001	1,000000000000000E+000	-3,5870150E-002	39	1,0799994E-003
2	1	0	1	0	1,845411343743196E+005	1,8982680E+000	1,8976862E+000	5,721384723562539E-002	1,000000000000000E+000	-1,5105300E-002	40	1,0857393E-004
2	1	0	1	0	1,846649588936921E+005	1,9973276E+000	1,9966999E+000	3,076390620388103E-002	1,000000000000000E+000	-9,8454161E-003	41	6,1426290E-005
2	1	0	1	0	1,847886587130465E+005	2,0962870E+000	2,0956492E+000	1,984123007295269E-002	1,000000000000000E+000	-6,7844838E-003	41	4,1580261E-005
2	1	0	1	0	1,849123583324015E+005	2,1952469E+000	2,1946578E+000	1,525293552031376E-002	1,000000000000000E+000	-4,5569823E-003	41	3,3474975E-005
2	1	0	1	0	1,850360581517573E+005	2,2942061E+000	2,2936165E+000	1,278032547575802E-002	1,000000000000000E+000	-2,7971761E-003	41	2,9313165E-005
2	1	0	1	0	1,851597576711103E+005	2,3931661E+000	2,3925629E+000	1,183471063219659E-002	1,000000000000000E+000	-1,2241413E-003	41	2,8315289E-005
2	1	0	1	0	1,852834572904627E+005	2,4921255E+000	2,4915173E+000	1,145652198064961E-002	1,000000000000000E+000	2,6799974E-004	41	2,8544122E-005
2	1	0	1	0	1,854071570098182E+005	2,5910854E+000	2,5904727E+000	1,171245057516175E-002	1,000000000000000E+000	1,7498805E-003	41	3,0340783E-005
2	1	0	1	0	1,855308567291733E+005	2,6900449E+000	2,6894655E+000	1,269589482123623E-002	1,000000000000000E+000	3,3054361E-003	41	3,4145171E-005
2	1	0	1	1	1,856526825482347E+005	2,6124766E+000	2,6118729E+000	1,648504505439108E-003	1,000000000000000E+000	3,9205034E-003	42	4,3056843E-006
2	0	0	1	1	1,857763819675879E+005	2,5135167E+000	2,5129380E+000	-7,607194464768902E-004	1,000000000000000E+000	3,9106552E-003	42	-1,9116408E-006
2	0	0	1	1	1,859000815869409E+005	2,4145572E+000	2,4140139E+000	-2,233285920834906E-003	1,000000000000000E+000	3,6723865E-003	42	-5,3911831E-006
2	0	0	1	1	1,860237809062965E+005	2,3155978E+000	2,3150752E+000	-3,412574536735915E-003	1,000000000000000E+000	3,2742878E-003	42	-7,9003667E-006
2	0	0	1	1	1,861474805256519E+005	2,2166381E+000	2,2160957E+000	-4,675260663326616E-003	1,000000000000000E+000	2,7291097E-003	42	-1,0360825E-005
2	0	0	1	1	1,862711799450051E+005	2,1176784E+000	2,1171701E+000	-6,275950788035167E-003	1,000000000000000E+000	2,0091753E-003	42	-1,3287256E-005
2	0	0	1	1	1,863948793643578E+005	2,0187187E+000	2,0182173E+000	-8,432780577270829E-003	1,000000000000000E+000	1,0615677E-003	42	-1,7019183E-005
2	0	0	1	1	1,865185790837133E+005	1,9197592E+000	1,9191624E+000	-1,188655932399523E-002	1,000000000000000E+000	-2,2600527E-004	41	-2,2812237E-005
2	0	0	1	1	1,866409041028528E+005	1,8218992E+000	1,8212916E+000	-1,712557133033776E-002	2,000000000000000E+000	-2,0323244E-003	41	-3,1190659E-005
2	0	0	1	1	1,867646036222079E+005	1,7229396E+000	1,7223899E+000	-2,352250764440680E-002	2,000000000000000E+000	-4,5891581E-003	41	-4,0514929E-005
2	0	0	1	1	1,868883033415605E+005	1,6239798E+000	1,6234187E+000	-4,274663270968293E-002	2,000000000000000E+000	-8,3773220E-003	41	-6,9395683E-005
2	0	0	1	1	1,870120028609145E+005	1,5250204E+000	1,5244510E+000	-2,003578581361425E-001	2,000000000000000E+000	-1,9132001E-002	40	-3,0543574E-004
2	0	0	1	1	1,871357023802696E+005	1,4260607E+000	1,4255247E+000	-4,081715086162907E-001	2,000000000000000E+000	-6,4305939E-002	40	-5,8185856E-004
2	0	0	1	1	1,872594018996255E+005	1,3271011E+000	1,3265373E+000	-3,029974287351127E-001	2,000000000000000E+000	-1,0842592E-001	40	-4,0193737E-004
2	0	0	1	1	1,873831014189776E+005	1,2281413E+000	1,2275237E+000	-2,252763560044717E-001	2,000000000000000E+000	-1,4077662E-001	40	-2,7653205E-004
2	0	0	1	1	1,875068010383309E+005	1,1291819E+000	1,1285831E+000	-1,767082459628209E-001	2,000000000000000E+000	-1,6542844E-001	40	-1,9942994E-004
2	0	0	1	1	1,876305004576865E+005	1,0302223E+000	1,0296329E+000	-1,484432955260990E-001	2,000000000000000E+000	-1,8538371E-001	40	-1,5284210E-004
2	0	0	1	1	1,877527014768065E+005	1,0675069E+000	1,0669045E+000	-8,089663086234672E-002	2,000000000000000E+000	-1,9963823E-001	40	-8,6308981E-005
2	0	0	1	1	1,878764010961615E+005	1,1664665E+000	1,1659038E+000	-4,643799588423025E-002	2,000000000000000E+000	-2,0725112E-001	41	-5,4142238E-005
2	0	0	1	1	1,880001008155150E+005	1,2654263E+000	1,2648149E+000	-2,689770965535505E-002	2,000000000000000E+000	-2,1167542E-001	41	-3,4020624E-005
2	0	0	1	1	1,881238003348678E+005	1,3643857E+000	1,3637832E+000	-1,304745681900465E-002	2,000000000000000E+000	-2,1409243E-001	41	-1,7793904E-005
2	1	0	1	1	1,882476250542430E+005	1,4634454E+000	1,4628398E+000	9,775532138721881E-004	2,000000000000000E+000	-2,1486230E-001	42	1,4300037E-006
2	1	0	1	1	1,883713247735982E+005	1,5624050E+000	1,5617541E+000	3,622615500638005E-002	2,000000000000000E+000	-2,1313483E-001	41	5,6576348E-005
2	1	0	1	1	1,884950243929517E+005	1,6613648E+000	1,6606735E+000	4,252245947144750E-001	2,000000000000000E+000	-1,9007269E-001	40	7,0615922E-004
2	1	0	1	1	1,886187240123046E+005	1,7603242E+000	1,7597147E+000	1,240435408342858E+000	2,000000000000000E+000	-8,2982413E-002	39	2,1828124E-003
2	1	0	1	1	1,887425484316793E+005	1,8593839E+000	1,8587644E+000	8,756710371837739E-002	2,000000000000000E+000	-1,9272670E-002	40	1,6276662E-004
2	1	0	1	1	1,888663731510536E+005	1,9584435E+000	1,9577756E+000	3,892282483387111E-002	2,000000000000000E+000	-1,2281018E-002	41	7,6202159E-005
2	1	0	1	1	1,889900728704087E+005	2,0574031E+000	2,0567899E+000	2,286517306102176E-002	2,000000000000000E+000	-8,5075712E-003	41	4,7028858E-005
2	1	0	1	1	1,891137725897618E+005	2,1563628E+000	2,1557360E+000	1,701589418779198E-002	2,000000000000000E+000	-6,0422700E-003	41	3,6681777E-005
2	1	0	1	1	1,892374722091148E+005	2,2553222E+000	2,2547138E+000	1,325837599296929E-002	2,000000000000000E+000	-4,1447706E-003	41	2,9893843E-005
2	1	0	1	1	1,893611718284703E+005	2,3542821E+000	2,3536763E+000	1,203347597279436E-002	2,000000000000000E+000	-2,5314058E-003	41	2,8322907E-005
2	1	0	1	1	1,894848714478260E+005	2,4532418E+000	2,4526663E+000	1,144585663382267E-002	2,000000000000000E+000	-1,0280997E-003	41	2,8072867E-005
2	1	0	1	1	1,896085711671789E+005	2,5522013E+000	2,5516245E+000	1,141074111044418E-002	2,000000000000000E+000	4,3530067E-004	41	2,9115927E-005
2	1	0	1	1	1,897322707865322E+005	2,6511610E+000	2,6505828E+000	1,206266350213420E-002	2,000000000000000E+000	1,9345232E-003	41	3,1973090E-005
2	1	0	1	0	1,898539716055738E+005	2,6514609E+000	2,6508281E+000	3,474067848145260E-003	2,000000000000000E+000	3,0584673E-003	42	9,2091568E-006
2	1	0	1	0	1,899776713249290E+005	2,5525010E+000	2,5519259E+000	3,447754975460495E-006	2,000000000000000E+000	3,1856035E-003	42	8,7984153E-009
2	0	0	1	0	1,901013705442846E+005	2,4535415E+000	2,4529684E+000	-1,723617749963029E-003	2,000000000000000E+000	3,0243562E-003	42	-4,2279798E-006
2	0	0	1	0	1,902250699636377E+005	2,3545821E+000	2,3540251E+000	-2,949269482176006E-003	2,000000000000000E+000	2,6861595E-003	42	-6,9426546E-006
2	0	0	1	0	1,903487695829901E+005	2,2556221E+000	2,2550821E+000	-4,114500335256802E-003	2,000000000000000E+000	2,2037558E-003	42	-9,2785358E-006
2	0	0	1	0	1,904724690023458E+005	2,1566625E+000	2,1561515E+000	-5,550164335140585E-003	2,000000000000000E+000	1,5628504E-003	42	-1,1966996E-005
2	0	0	1	0	1,905961686217012E+005	2,0577030E+000	2,0571916E+000	-7,443727563548615E-003	2,000000000000000E+000	7,2008674E-004	42	-1,5313173E-005
2	0	0	1	0	1,907198680410548E+005	1,9587435E+000	1,9581783E+000	-1,019367985225461E-002	2,000000000000000E+000	-4,0312699E-004	41	-1,9961042E-005
2	0	0	1	0	1,908163680561529E+005	1,8815254E+000	1,8809355E+000	-1,370096054137215E-002	2,000000000000000E+000	-1,5832066E-003	41	-2,5770623E-005