File: Dati/201027/CV_LTO-C_Al_slurrymia_01_1mVs_04_CV_C03.mpt
EC-Lab ASCII FILE
Nb header lines : 63

Cyclic Voltammetry

Run on channel : 3 (SN 6807)
User :
Electrode connection : standard
Ewe ctrl range : min = 0,00 V, max = 5,00 V
Ewe,I filtering : 50 kHz
Safety Limits :
	Do not start on E overload
Channel : Grounded
Acquisition started on : 10/27/2020 18:19:16
Saved on :
	File : CV_LTO-C_Al_slurrymia_01_1mVs_04_CV_C03.mpr
	Directory : C:\Users\labsuperfici\Desktop\Biologic\Users\Prisca Viviani\201027\
	Host : 10.78.33.0
Device : VSP-300 (SN 0638)
Address : USB
EC-Lab for windows v11.31 (software)
Internet server v11.30 (firmware)
Command interpretor v11.31 (firmware)
Electrode material :
Initial state :
Electrolyte :
Comments :
Cable : standard
Reference electrode : SCE Saturated Calomel Electrode (0,241 V)
Electrode surface area : 0,001 cm²
Characteristic mass : 0,001 g
Equivalent Weight : 0,000 g/eq.
Density : 0,000 g/cm3
Cycle Definition : Charge/Discharge alternance
Ei (V)              0,000
vs.                 Eoc
dE/dt               0,400
dE/dt unit          mV/s
E1 (V)              1,000
vs.                 Ref
Step percent        50
N                   10
E range min (V)     0,000
E range max (V)     5,000
I Range             Auto
I Range min         Unset
I Range max         Unset
I Range init        Unset
Bandwidth           8
E2 (V)              3,000
vs.                 Ref
nc cycles           2
Reverse Scan        1
Ef (V)              0,000
vs.                 Eoc

Modify on : 10/28/2020 10:35
nc cycles           1

Modify on : 10/28/2020 10:37
E2 (V)              2,700

mode	ox/red	error	control changes	counter inc.	time/s	control/V	Ewe/V	<I>/mA	cycle number	(Q-Qo)/C	I Range	P/W
2	0	0	1	0	1,306676016040691E+005	1,8815254E+000	1,8810577E+000	-5,861883051693439E-003	1,000000000000000E+000	0,0000000E+000	42	-1,1026540E-005
2	0	0	1	0	1,309113768464433E+005	1,7840147E+000	1,7835259E+000	-1,022836393598872E-002	1,000000000000000E+000	-1,9980266E-003	41	-1,8242552E-005
2	0	0	1	0	1,311562767216330E+005	1,6860545E+000	1,6855599E+000	-1,420153984476552E-002	1,000000000000000E+000	-5,0409501E-003	41	-2,3937546E-005
2	0	0	1	0	1,314011768599483E+005	1,5880947E+000	1,5875782E+000	-2,835322701420973E-002	1,000000000000000E+000	-9,7712213E-003	41	-4,5012963E-005
2	0	0	1	0	1,316460767982670E+005	1,4901346E+000	1,4896369E+000	-1,305919149734930E-001	1,000000000000000E+000	-2,5698552E-002	40	-1,9453453E-004
2	0	0	1	0	1,318909766365848E+005	1,3921745E+000	1,3916918E+000	-1,802968931563345E-001	1,000000000000000E+000	-6,6852219E-002	40	-2,5091771E-004
2	0	0	1	0	1,321358766749015E+005	1,2942145E+000	1,2937171E+000	-1,509404388440858E-001	1,000000000000000E+000	-1,0789219E-001	40	-1,9527423E-004
2	0	0	1	0	1,323807765132203E+005	1,1962544E+000	1,1957278E+000	-1,196028114527157E-001	1,000000000000000E+000	-1,4089355E-001	40	-1,4301241E-004
2	0	0	1	0	1,326256766515356E+005	1,0982945E+000	1,0977702E+000	-9,541923737503810E-002	1,000000000000000E+000	-1,6706514E-001	40	-1,0474840E-004
2	0	0	1	0	1,328703262898152E+005	1,0004344E+000	9,9988061E-001	-7,954239448750444E-002	1,000000000000000E+000	-1,8834293E-001	40	-7,9532896E-005
2	0	0	1	0	1,331127284277421E+005	1,0964952E+000	1,0960238E+000	-3,807823517243336E-002	1,000000000000000E+000	-2,0136012E-001	41	-4,1734653E-005
2	0	0	1	0	1,333576286660577E+005	1,1944551E+000	1,1939731E+000	-2,148065135171834E-002	1,000000000000000E+000	-2,0842905E-001	41	-2,5647319E-005
2	0	0	1	0	1,336025290043771E+005	1,2924151E+000	1,2918928E+000	-1,198449420039741E-002	1,000000000000000E+000	-2,1242324E-001	41	-1,5482681E-005
2	0	0	1	0	1,338474293426946E+005	1,3903751E+000	1,3898753E+000	-5,182825809701683E-003	1,000000000000000E+000	-2,1449076E-001	41	-7,2034813E-006
2	1	0	1	0	1,340925795810506E+005	1,4884353E+000	1,4878805E+000	2,925394334890094E-003	1,000000000000000E+000	-2,1484706E-001	42	4,3526370E-006
2	1	0	1	0	1,343374798193695E+005	1,5863953E+000	1,5858291E+000	2,672414452472308E-002	1,000000000000000E+000	-2,1195692E-001	41	4,2379928E-005
2	1	0	1	0	1,345823802576847E+005	1,6843554E+000	1,6838396E+000	1,620743966605569E-001	1,000000000000000E+000	-1,9091241E-001	40	2,7290729E-004
2	1	0	1	0	1,348272804960033E+005	1,7823153E+000	1,7817010E+000	5,263737599933851E-001	1,000000000000000E+000	-1,0799640E-001	40	9,3784061E-004
2	1	0	1	0	1,350721809343211E+005	1,8802755E+000	1,8797470E+000	1,197579926647161E-001	1,000000000000000E+000	-2,1515490E-002	40	2,2511474E-004
2	1	0	1	0	1,353170811726374E+005	1,9782352E+000	1,9776992E+000	1,658338820807981E-002	1,000000000000000E+000	-1,1839243E-002	41	3,2796954E-005
2	1	0	1	0	1,355619819109566E+005	2,0761952E+000	2,0757267E+000	1,124713256435220E-002	1,000000000000000E+000	-8,5288631E-003	41	2,3345974E-005
2	1	0	1	0	1,358068826492736E+005	2,1741555E+000	2,1736562E+000	8,446399109953220E-003	1,000000000000000E+000	-6,1531616E-003	41	1,8359568E-005
2	1	0	1	0	1,360517830875906E+005	2,2721152E+000	2,2716196E+000	7,632962301513252E-003	1,000000000000000E+000	-4,1499818E-003	41	1,7339187E-005
2	1	0	1	0	1,362966842259099E+005	2,3700755E+000	2,3696213E+000	7,048764392555751E-003	1,000000000000000E+000	-2,3157506E-003	41	1,6702903E-005
2	1	0	1	0	1,365415849642260E+005	2,4680359E+000	2,4675374E+000	6,748624229373328E-003	1,000000000000000E+000	-5,8505393E-004	41	1,6652482E-005
2	1	0	1	0	1,367864853025436E+005	2,5659957E+000	2,5655272E+000	6,664963255409814E-003	1,000000000000000E+000	1,0943502E-003	41	1,7099144E-005
2	1	0	1	0	1,370313857408627E+005	2,6639557E+000	2,6634970E+000	6,899523248344072E-003	1,000000000000000E+000	2,7917025E-003	41	1,8376859E-005
2	1	0	1	1	1,372727879786314E+005	2,6394656E+000	2,6390259E+000	1,500841852559127E-003	1,000000000000000E+000	3,8682546E-003	42	3,9607608E-006
2	0	0	1	1	1,375176880169489E+005	2,5415056E+000	2,5410936E+000	-2,918925943346134E-004	1,000000000000000E+000	3,9474363E-003	43	-7,4172641E-007
2	0	0	1	1	1,377625878552673E+005	2,4435456E+000	2,4430978E+000	-1,013466420435257E-003	1,000000000000000E+000	3,7476639E-003	42	-2,4759977E-006
2	0	0	1	1	1,380074877935825E+005	2,3455851E+000	2,3451724E+000	-1,602894791682477E-003	1,000000000000000E+000	3,3881767E-003	42	-3,7590646E-006
2	0	0	1	1	1,382523879319022E+005	2,2476256E+000	2,2472003E+000	-2,213194008932240E-003	1,000000000000000E+000	2,8849053E-003	42	-4,9734899E-006
2	0	0	1	1	1,384972876702184E+005	2,1496654E+000	2,1492453E+000	-2,975714192412542E-003	1,000000000000000E+000	2,2150597E-003	42	-6,3955395E-006
2	0	0	1	1	1,387421878085363E+005	2,0517054E+000	2,0512490E+000	-3,921345149802066E-003	1,000000000000000E+000	1,3366534E-003	42	-8,0436557E-006
2	0	0	1	1	1,389870877468544E+005	1,9537454E+000	1,9533145E+000	-5,323888696203732E-003	1,000000000000000E+000	1,8034040E-004	42	-1,0399229E-005
2	0	0	1	1	1,392292387847397E+005	1,8568850E+000	1,8564641E+000	-7,609709050349800E-003	2,000000000000000E+000	-1,3998060E-003	42	-1,4127152E-005
2	0	0	1	1	1,394741388230589E+005	1,7589248E+000	1,7584410E+000	-1,134099211772768E-002	2,000000000000000E+000	-3,7398797E-003	41	-1,9942465E-005
2	0	0	1	1	1,397190390613768E+005	1,6609650E+000	1,6604632E+000	-1,586297603892728E-002	2,000000000000000E+000	-7,0411982E-003	41	-2,6339889E-005
2	0	0	1	1	1,399639388996933E+005	1,5630049E+000	1,5625252E+000	-4,088537160542394E-002	2,000000000000000E+000	-1,3180624E-002	41	-6,3884421E-005
2	0	0	1	1	1,402088387380121E+005	1,4650447E+000	1,4645317E+000	-1,936749684284436E-001	2,000000000000000E+000	-4,1063901E-002	40	-2,8364311E-004
2	0	0	1	1	1,404537386763273E+005	1,3670847E+000	1,3665670E+000	-1,928929100408042E-001	2,000000000000000E+000	-9,1093518E-002	40	-2,6360108E-004
2	0	0	1	1	1,406986386146464E+005	1,2691246E+000	1,2685695E+000	-1,522202553712066E-001	2,000000000000000E+000	-1,3319129E-001	40	-1,9310197E-004
2	0	0	1	1	1,409435386529639E+005	1,1711648E+000	1,1706395E+000	-1,187158313870400E-001	2,000000000000000E+000	-1,6629539E-001	40	-1,3897344E-004
2	0	0	1	1	1,411884383912807E+005	1,0732046E+000	1,0726410E+000	-8,994641948202420E-002	2,000000000000000E+000	-1,9173642E-001	40	-9,6480217E-005
2	0	0	1	1	1,414303403291309E+005	1,0235249E+000	1,0229187E+000	-5,426501595748623E-002	2,000000000000000E+000	-2,1040711E-001	40	-5,5508699E-005
2	0	0	1	1	1,416752405674462E+005	1,1214849E+000	1,1209493E+000	-2,183064279970534E-002	2,000000000000000E+000	-2,1901971E-001	41	-2,4471043E-005
2	0	0	1	1	1,419201410057647E+005	1,2194450E+000	1,2188911E+000	-8,762629772276771E-003	2,000000000000000E+000	-2,2253191E-001	41	-1,0680692E-005
2	0	0	1	1	1,421650410440830E+005	1,3174050E+000	1,3168380E+000	-2,278181952250834E-003	2,000000000000000E+000	-2,2379050E-001	42	-2,9999967E-006
2	1	0	1	1	1,424099416823983E+005	1,4153651E+000	1,4147578E+000	2,720839560667182E-003	2,000000000000000E+000	-2,2372994E-001	42	3,8493290E-006
2	1	0	1	1	1,426548417207177E+005	1,5133251E+000	1,5127314E+000	1,151590428029085E-002	2,000000000000000E+000	-2,2213405E-001	41	1,7420471E-005
2	1	0	1	1	1,428997421590351E+005	1,6112852E+000	1,6106101E+000	1,007105973071663E-001	2,000000000000000E+000	-2,1361077E-001	41	1,6220551E-004
2	1	0	1	1	1,431446425973519E+005	1,7092452E+000	1,7085662E+000	5,779599182439501E-001	2,000000000000000E+000	-1,4345750E-001	40	9,8748272E-004
2	1	0	1	1	1,433895429356713E+005	1,8072051E+000	1,8066056E+000	1,043394189024938E-001	2,000000000000000E+000	-2,3802506E-002	40	1,8850017E-004
2	1	0	1	1	1,436346930740257E+005	1,9052652E+000	1,9046928E+000	1,903965185140555E-002	2,000000000000000E+000	-1,4424598E-002	41	3,6264686E-005
2	1	0	1	1	1,438795935123440E+005	2,0032251E+000	2,0026517E+000	1,249868348734835E-002	2,000000000000000E+000	-1,0743906E-002	41	2,5030509E-005
2	1	0	1	1	1,441244942506626E+005	2,1011848E+000	2,1005945E+000	9,084733769527203E-003	2,000000000000000E+000	-8,0689434E-003	41	1,9083342E-005
2	1	0	1	1	1,443693946889779E+005	2,1991448E+000	2,1985767E+000	8,194670704783497E-003	2,000000000000000E+000	-5,8838711E-003	41	1,8016612E-005
2	1	0	1	1	1,446142958272969E+005	2,2971053E+000	2,2965481E+000	7,425252043274294E-003	2,000000000000000E+000	-3,9012448E-003	41	1,7052449E-005
2	1	0	1	1	1,448591961656148E+005	2,3950655E+000	2,3945029E+000	6,736471584862583E-003	2,000000000000000E+000	-2,0925675E-003	41	1,6130500E-005
2	1	0	1	1	1,451040969039307E+005	2,4930253E+000	2,4924881E+000	6,246272431785986E-003	2,000000000000000E+000	-4,5575781E-004	41	1,5568759E-005
2	1	0	1	1	1,453489976422500E+005	2,5909858E+000	2,5904882E+000	6,356270783610257E-003	2,000000000000000E+000	1,1420419E-003	41	1,6465845E-005
2	1	0	1	1	1,455938983805673E+005	2,6889458E+000	2,6884301E+000	6,801848208780943E-003	2,000000000000000E+000	2,8020630E-003	41	1,8286293E-005
2	1	0	1	0	1,458353001183362E+005	2,6144757E+000	2,6140182E+000	6,274660189357849E-004	2,000000000000000E+000	3,4359677E-003	42	1,6402076E-006
2	0	0	1	0	1,460819491569297E+005	2,5158160E+000	2,5153029E+000	-6,195831566958177E-004	2,000000000000000E+000	3,3611150E-003	42	-1,5584393E-006
2	0	0	1	0	1,463268492952450E+005	2,4178560E+000	2,4174054E+000	-1,254568483851975E-003	2,000000000000000E+000	3,0767249E-003	42	-3,0328006E-006
2	0	0	1	0	1,465717491335634E+005	2,3198962E+000	2,3194609E+000	-1,833912769170346E-003	2,000000000000000E+000	2,6478132E-003	42	-4,2536890E-006
2	0	0	1	0	1,468166491718809E+005	2,2219357E+000	2,2214737E+000	-2,502086185388393E-003	2,000000000000000E+000	2,0681710E-003	42	-5,5583187E-006
2	0	0	1	0	1,470615493101976E+005	2,1239758E+000	2,1235046E+000	-3,350051778703522E-003	2,000000000000000E+000	1,3050570E-003	42	-7,1138506E-006
2	0	0	1	0	1,473064489485170E+005	2,0260158E+000	2,0255325E+000	-4,470157232004543E-003	2,000000000000000E+000	3,0653406E-004	42	-9,0544490E-006
2	0	0	1	0	1,475513492868324E+005	1,9280559E+000	1,9276226E+000	-6,262494138607064E-003	2,000000000000000E+000	-1,0367719E-003	42	-1,2071725E-005
2	0	0	0	0	1,476676299050255E+005	1,8815254E+000	1,8810769E+000	-7,538021238855080E-003	2,000000000000000E+000	-1,8573501E-003	42	-1,4179598E-005