File: Dati/201027/CV_LTO-C_Al_slurrymia_01_1mVs_06_CV_C03.mpt
EC-Lab ASCII FILE
Nb header lines : 63

Cyclic Voltammetry

Run on channel : 3 (SN 6807)
User :
Electrode connection : standard
Ewe ctrl range : min = 0,00 V, max = 5,00 V
Ewe,I filtering : 50 kHz
Safety Limits :
	Do not start on E overload
Channel : Grounded
Acquisition started on : 10/27/2020 18:19:16
Saved on :
	File : CV_LTO-C_Al_slurrymia_01_1mVs_06_CV_C03.mpr
	Directory : C:\Users\labsuperfici\Desktop\Biologic\Users\Prisca Viviani\201027\
	Host : 10.78.33.0
Device : VSP-300 (SN 0638)
Address : USB
EC-Lab for windows v11.31 (software)
Internet server v11.30 (firmware)
Command interpretor v11.31 (firmware)
Electrode material :
Initial state :
Electrolyte :
Comments :
Cable : standard
Reference electrode : SCE Saturated Calomel Electrode (0,241 V)
Electrode surface area : 0,001 cm²
Characteristic mass : 0,001 g
Equivalent Weight : 0,000 g/eq.
Density : 0,000 g/cm3
Cycle Definition : Charge/Discharge alternance
Ei (V)              0,000
vs.                 Eoc
dE/dt               0,600
dE/dt unit          mV/s
E1 (V)              1,000
vs.                 Ref
Step percent        50
N                   10
E range min (V)     0,000
E range max (V)     5,000
I Range             Auto
I Range min         Unset
I Range max         Unset
I Range init        Unset
Bandwidth           8
E2 (V)              3,000
vs.                 Ref
nc cycles           2
Reverse Scan        1
Ef (V)              0,000
vs.                 Eoc

Modify on : 10/28/2020 10:35
nc cycles           1

Modify on : 10/28/2020 10:37
E2 (V)              2,700

mode	ox/red	error	control changes	counter inc.	time/s	control/V	Ewe/V	<I>/mA	cycle number	(Q-Qo)/C	I Range	P/W
2	0	0	1	0	1,612682248329986E+005	1,8815254E+000	1,8808821E+000	-1,082594506442547E-002	1,000000000000000E+000	0,0000000E+000	41	-2,0362328E-005
2	0	0	1	0	1,614307418584274E+005	1,7840145E+000	1,7834074E+000	-1,588573278144423E-002	1,000000000000000E+000	-2,2294931E-003	41	-2,8330734E-005
2	0	0	1	0	1,615940086839721E+005	1,6860545E+000	1,6854671E+000	-2,118569034369720E-002	1,000000000000000E+000	-5,2738511E-003	41	-3,5707784E-005
2	0	0	1	0	1,617572756095179E+005	1,5880942E+000	1,5875016E+000	-5,082943510335314E-002	1,000000000000000E+000	-1,0514178E-002	41	-8,0691811E-005
2	0	0	0	0	1,619205423350632E+005	1,4901344E+000	1,4895563E+000	-3,565526560659253E-001	1,000000000000000E+000	-3,7191778E-002	40	-5,3110527E-004
2	0	0	1	0	1,620838090606083E+005	1,3921745E+000	1,3915863E+000	-3,429280875591449E-001	1,000000000000000E+000	-9,9489778E-002	40	-4,7721402E-004
2	0	0	1	0	1,622470759861523E+005	1,2942144E+000	1,2935998E+000	-2,437805445158117E-001	1,000000000000000E+000	-1,4676914E-001	40	-3,1535447E-004
2	0	0	1	0	1,624103427116972E+005	1,1962544E+000	1,1956443E+000	-1,685750835667652E-001	1,000000000000000E+000	-1,8024279E-001	40	-2,0155583E-004
2	0	0	1	0	1,625736095372420E+005	1,0982943E+000	1,0976567E+000	-1,114135613700173E-001	1,000000000000000E+000	-2,0283236E-001	40	-1,2229384E-004
2	0	0	1	0	1,627367095627617E+005	1,0004344E+000	9,9977976E-001	-8,327136113744826E-002	1,000000000000000E+000	-2,1823707E-001	40	-8,3253020E-005
2	0	0	1	0	1,628983110880452E+005	1,0964950E+000	1,0958892E+000	-1,848922329927558E-002	1,000000000000000E+000	-2,2468393E-001	41	-2,0262140E-005
2	0	0	1	0	1,630615780135901E+005	1,1944550E+000	1,1938761E+000	-3,292908318743598E-003	1,000000000000000E+000	-2,2621417E-001	42	-3,9313245E-006
2	1	0	1	0	1,632248450391350E+005	1,2924151E+000	1,2917386E+000	2,753685076019211E-003	1,000000000000000E+000	-2,2617859E-001	42	3,5570413E-006
2	1	0	1	0	1,633881118646795E+005	1,3903751E+000	1,3896896E+000	7,236558228659970E-003	1,000000000000000E+000	-2,2534874E-001	42	1,0056569E-005
2	1	0	1	0	1,635513787902237E+005	1,4883351E+000	1,4877095E+000	1,519288436495220E-002	1,000000000000000E+000	-2,2357684E-001	41	2,2602599E-005
2	1	0	1	0	1,637146457157694E+005	1,5862950E+000	1,5855604E+000	7,516451812655556E-002	1,000000000000000E+000	-2,1847717E-001	41	1,1917789E-004
2	1	0	0	0	1,638779128413149E+005	1,6842551E+000	1,6835355E+000	6,852389718818976E-001	1,000000000000000E+000	-1,6526601E-001	40	1,1536242E-003
2	1	0	1	0	1,640411798668606E+005	1,7822152E+000	1,7815546E+000	2,526805691122204E-001	1,000000000000000E+000	-2,8771061E-002	40	4,5016423E-004
2	1	0	1	0	1,642044465924064E+005	1,8801754E+000	1,8795075E+000	3,770196557323025E-002	1,000000000000000E+000	-1,5646271E-002	41	7,0861126E-005
2	1	0	1	0	1,643677136179521E+005	1,9781352E+000	1,9774822E+000	1,997895108675696E-002	1,000000000000000E+000	-1,1116650E-002	41	3,9508021E-005
2	1	0	1	0	1,645309806434973E+005	2,0760951E+000	2,0754709E+000	1,561916096282140E-002	1,000000000000000E+000	-8,1570651E-003	41	3,2417116E-005
2	1	0	1	0	1,646942479690411E+005	2,1740553E+000	2,1734056E+000	1,204255874563143E-002	1,000000000000000E+000	-5,8592311E-003	41	2,6173366E-005
2	1	0	1	0	1,648575151945860E+005	2,2720153E+000	2,2714012E+000	1,072709410875605E-002	1,000000000000000E+000	-3,9356868E-003	41	2,4365534E-005
2	1	0	1	0	1,650207822201308E+005	2,3699753E+000	2,3693509E+000	9,879359892060992E-003	1,000000000000000E+000	-2,1877824E-003	41	2,3407671E-005
2	1	0	1	0	1,651840491456755E+005	2,4679358E+000	2,4673271E+000	9,542339767205726E-003	1,000000000000000E+000	-5,3805381E-004	41	2,3544073E-005
2	1	0	1	0	1,653473164712195E+005	2,5658958E+000	2,5652578E+000	9,686101458248955E-003	1,000000000000000E+000	1,0950328E-003	41	2,4847348E-005
2	1	0	1	0	1,655105834967652E+005	2,6638556E+000	2,6632614E+000	1,045657937871025E-002	1,000000000000000E+000	2,8008276E-003	41	2,7848604E-005
2	1	0	1	1	1,656716845219729E+005	2,6394658E+000	2,6388698E+000	2,323495869157897E-003	1,000000000000000E+000	3,9087688E-003	42	6,1314031E-006
2	0	0	1	1	1,658349514475173E+005	2,5415053E+000	2,5409293E+000	-3,195917158049268E-004	1,000000000000000E+000	3,9744806E-003	42	-8,1205997E-007
2	0	0	1	1	1,659982181730621E+005	2,4435456E+000	2,4429555E+000	-1,560163382941605E-003	1,000000000000000E+000	3,7517215E-003	42	-3,8114097E-006
2	0	0	1	1	1,661614849986069E+005	2,3455853E+000	2,3450224E+000	-2,526828069580588E-003	1,000000000000000E+000	3,3558859E-003	42	-5,9254685E-006
2	0	0	1	1	1,663247519241517E+005	2,2476251E+000	2,2470641E+000	-3,502323734787892E-003	1,000000000000000E+000	2,8055825E-003	42	-7,8699459E-006
2	0	0	1	1	1,664880185496961E+005	2,1496651E+000	2,1491272E+000	-4,768258090674438E-003	1,000000000000000E+000	2,0725166E-003	42	-1,0247593E-005
2	0	0	1	1	1,666512854752406E+005	2,0517054E+000	2,0511377E+000	-6,450738357669690E-003	1,000000000000000E+000	1,1028002E-003	42	-1,3231353E-005
2	0	0	1	1	1,668145523007861E+005	1,9537454E+000	1,9531488E+000	-9,118719994556084E-003	1,000000000000000E+000	-2,1353952E-004	41	-1,7810218E-005
2	0	0	1	1	1,669759864260452E+005	1,8568848E+000	1,8562797E+000	-1,283910819795850E-002	2,000000000000000E+000	-2,0373238E-003	41	-2,3832976E-005
2	0	0	1	1	1,671392533515894E+005	1,7589247E+000	1,7583263E+000	-1,700390899700319E-002	2,000000000000000E+000	-4,5419922E-003	41	-2,9898420E-005
2	0	0	1	1	1,673025202771346E+005	1,6609645E+000	1,6603477E+000	-2,453463921270402E-002	2,000000000000000E+000	-7,8370916E-003	41	-4,0736031E-005
2	0	0	1	1	1,674657869026801E+005	1,5630046E+000	1,5624608E+000	-7,354023835900914E-002	2,000000000000000E+000	-1,4774092E-002	41	-1,1490374E-004
2	0	0	1	1	1,676290537282256E+005	1,4650447E+000	1,4644818E+000	-4,155678262680080E-001	2,000000000000000E+000	-5,7371318E-002	40	-6,0859154E-004
2	0	0	1	1	1,677923205537712E+005	1,3670847E+000	1,3664994E+000	-3,144899874718654E-001	2,000000000000000E+000	-1,1881039E-001	40	-4,2975039E-004
2	0	0	1	1	1,679555873793163E+005	1,2691246E+000	1,2684891E+000	-2,184419117601752E-001	2,000000000000000E+000	-1,6183403E-001	40	-2,7709120E-004
2	0	0	1	1	1,681188541048616E+005	1,1711646E+000	1,1705171E+000	-1,460865747188389E-001	2,000000000000000E+000	-1,9135419E-001	40	-1,7099683E-004
2	0	0	1	1	1,682821208304069E+005	1,0732046E+000	1,0725948E+000	-9,541271410879681E-002	2,000000000000000E+000	-2,1071906E-001	40	-1,0233917E-004
2	0	0	1	1	1,684433891556381E+005	1,0235248E+000	1,0229342E+000	-4,820934995546733E-002	2,000000000000000E+000	-2,2354145E-001	41	-4,9314993E-005
2	0	0	1	1	1,686066559811829E+005	1,1214850E+000	1,1208152E+000	-1,058253035948548E-002	2,000000000000000E+000	-2,2759452E-001	41	-1,1861061E-005
2	1	0	1	1	1,687699231067278E+005	1,2194450E+000	1,2188063E+000	1,504832476225853E-004	2,000000000000000E+000	-2,2827072E-001	43	1,8340992E-007
2	1	0	1	1	1,689331899322725E+005	1,3174050E+000	1,3166922E+000	4,751898412591639E-003	2,000000000000000E+000	-2,2781727E-001	42	6,2567879E-006
2	1	0	1	1	1,690964569578166E+005	1,4153649E+000	1,4146491E+000	9,308575407287467E-003	2,000000000000000E+000	-2,2667362E-001	42	1,3168368E-005
2	1	0	1	1	1,692597237833622E+005	1,5133249E+000	1,5126705E+000	1,926315759938480E-002	2,000000000000000E+000	-2,2446649E-001	41	2,9138811E-005
2	1	0	1	1	1,694229908089079E+005	1,6112850E+000	1,6105907E+000	1,927622026025739E-001	2,000000000000000E+000	-2,1443409E-001	40	3,1046101E-004
2	1	0	1	1	1,695862578344531E+005	1,7092450E+000	1,7086251E+000	1,038317349269908E+000	2,000000000000000E+000	-1,2615573E-001	39	1,7740951E-003
2	1	0	1	1	1,697495248599988E+005	1,8072050E+000	1,8065606E+000	8,600303818970501E-002	2,000000000000000E+000	-2,3499502E-002	40	1,5536971E-004
2	1	0	1	1	1,699129583855681E+005	1,9052650E+000	1,9045596E+000	3,088202349870667E-002	2,000000000000000E+000	-1,5462110E-002	41	5,8816655E-005
2	1	0	1	1	1,700762254111138E+005	2,0032248E+000	2,0025983E+000	1,842073197820571E-002	2,000000000000000E+000	-1,1603548E-002	41	3,6889327E-005
2	1	0	1	1	1,702394924366591E+005	2,1011851E+000	2,1005356E+000	1,419523471145809E-002	2,000000000000000E+000	-8,8621005E-003	41	2,9817596E-005
2	1	0	1	1	1,704027594622048E+005	2,1991451E+000	2,1985133E+000	1,152747615481378E-002	2,000000000000000E+000	-6,7207669E-003	41	2,5343310E-005
2	1	0	1	1	1,705660266877506E+005	2,2971053E+000	2,2964728E+000	1,036766051141422E-002	2,000000000000000E+000	-4,8630573E-003	41	2,3809051E-005
2	1	0	1	1	1,707292938132954E+005	2,3950653E+000	2,3944232E+000	9,656473058091714E-003	2,000000000000000E+000	-3,1626720E-003	41	2,3121684E-005
2	1	0	1	1	1,708925610388396E+005	2,4930255E+000	2,4923749E+000	9,435993361207012E-003	2,000000000000000E+000	-1,5370341E-003	41	2,3518032E-005
2	1	0	1	1	1,710558279643845E+005	2,5909855E+000	2,5903873E+000	9,749152900402208E-003	2,000000000000000E+000	9,3429691E-005	41	2,5254083E-005
2	1	0	1	1	1,712190949899292E+005	2,6889453E+000	2,6882982E+000	1,066481229588393E-002	2,000000000000000E+000	1,8207218E-003	41	2,8670196E-005
2	1	0	1	0	1,713800296151100E+005	2,6144757E+000	2,6138937E+000	1,346101591392646E-003	2,000000000000000E+000	2,5198993E-003	42	3,5185665E-006
2	0	0	1	0	1,715436294407053E+005	2,5163159E+000	2,5156984E+000	-7,110750221329658E-004	2,000000000000000E+000	2,4848217E-003	42	-1,7888503E-006
2	0	0	1	0	1,717068963662512E+005	2,4183559E+000	2,4177794E+000	-1,830243432853880E-003	2,000000000000000E+000	2,2068261E-003	42	-4,4251251E-006
2	0	0	1	0	1,718701632917966E+005	2,3203955E+000	2,3198063E+000	-2,784002237647187E-003	2,000000000000000E+000	1,7654969E-003	42	-6,4583460E-006
2	0	0	1	0	1,720334299173420E+005	2,2224357E+000	2,2218366E+000	-3,823959984503867E-003	2,000000000000000E+000	1,1659137E-003	42	-8,4962139E-006
2	0	0	1	0	1,721966968428874E+005	2,1244757E+000	2,1239290E+000	-5,178679199656290E-003	2,000000000000000E+000	3,7338166E-004	42	-1,0999147E-005
2	0	0	1	0	1,723599637684328E+005	2,0265155E+000	2,0260050E+000	-7,037969627203169E-003	2,000000000000000E+000	-6,7569216E-004	42	-1,4258962E-005
2	0	0	1	0	1,725232304939781E+005	1,9285556E+000	1,9279208E+000	-1,004213005052635E-002	2,000000000000000E+000	-2,1222210E-003	41	-1,9360432E-005
2	0	0	0	0	1,726015842062356E+005	1,8815254E+000	1,8809090E+000	-1,191382458740384E-002	2,000000000000000E+000	-3,0086047E-003	41	-2,2408820E-005