File: Dati/210416_2/CV_LTO-CB_grafite nuova_15 layers__06_CV_C01.mpt
EC-Lab ASCII FILE
Nb header lines : 57

Cyclic Voltammetry

Run on channel : 1 (SN 6806)
User : Seelab
Electrode connection : standard
Ewe ctrl range : min = 0,00 V, max = 5,00 V
Ewe,I filtering : 50 kHz
Safety Limits :
	Do not start on E overload
Channel : Grounded
Acquisition started on : 04/16/2021 18:47:00
Saved on :
	File : CV_LTO-CB_grafite nuova_15 layers__06_CV_C01.mpr
	Directory : C:\Users\labsuperfici\Desktop\Biologic\Users\Prisca Viviani\210416_2\
	Host : 10.78.33.0
Device : VSP-300 (SN 0638)
Address : USB
EC-Lab for windows v11.31 (software)
Internet server v11.30 (firmware)
Command interpretor v11.31 (firmware)
Electrode material :
Initial state :
Electrolyte :
Comments :
Cable : standard
Reference electrode : SCE Saturated Calomel Electrode (0,241 V)
Electrode surface area : 0,001 cm²
Characteristic mass : 0,001 g
Equivalent Weight : 0,000 g/eq.
Density : 0,000 g/cm3
Cycle Definition : Charge/Discharge alternance
Ei (V)              0,000
vs.                 Eoc
dE/dt               0,500
dE/dt unit          mV/s
E1 (V)              1,000
vs.                 Ref
Step percent        50
N                   10
E range min (V)     0,000
E range max (V)     5,000
I Range             Auto
I Range min         Unset
I Range max         Unset
I Range init        Unset
Bandwidth           8
E2 (V)              3,000
vs.                 Ref
nc cycles           1
Reverse Scan        1
Ef (V)              0,000
vs.                 Eoc

mode	ox/red	error	control changes	counter inc.	time/s	control/V	Ewe/V	<I>/mA	cycle number	(Q-Qo)/C	I Range	P/W
2	0	0	1	0	1,679510434786056E+005	2,2496376E+000	2,2504835E+000	-6,033443380147219E-003	1,000000000000000E+000	0,0000000E+000	42	-1,3578165E-005
2	0	0	1	0	1,681821029147562E+005	2,1341071E+000	2,1349909E+000	-9,049712922193337E-003	1,000000000000000E+000	-1,7791640E-003	42	-1,9321054E-005
2	0	0	1	0	1,684140623510492E+005	2,0181274E+000	2,0189126E+000	-1,284034114581620E-002	1,000000000000000E+000	-4,3132133E-003	41	-2,5923526E-005
2	0	0	1	0	1,686460218873434E+005	1,9021478E+000	1,9029449E+000	-1,814053965272440E-002	1,000000000000000E+000	-7,9068225E-003	41	-3,4520446E-005
2	0	0	1	0	1,688779814236339E+005	1,7861681E+000	1,7869419E+000	-2,770828587525193E-002	1,000000000000000E+000	-1,3106886E-002	41	-4,9513095E-005
2	0	0	1	0	1,691099407599289E+005	1,6701883E+000	1,6709949E+000	-4,894352094153154E-002	1,000000000000000E+000	-2,1740176E-002	41	-8,1784376E-005
2	0	0	1	0	1,693419000962200E+005	1,5542086E+000	1,5550749E+000	-9,739840638890351E-002	1,000000000000000E+000	-3,7704144E-002	41	-1,5146182E-004
2	0	0	1	0	1,695738594325131E+005	1,4382288E+000	1,4390059E+000	-1,956877760724920E-001	1,000000000000000E+000	-7,4491717E-002	40	-2,8159586E-004
2	0	0	1	0	1,698058189688064E+005	1,3222491E+000	1,3230311E+000	-1,834015259816909E-001	1,000000000000000E+000	-1,1910155E-001	40	-2,4264591E-004
2	0	0	1	0	1,700377782050977E+005	1,2062695E+000	1,2070560E+000	-1,552595367478768E-001	1,000000000000000E+000	-1,5823096E-001	40	-1,8740696E-004
2	0	0	1	0	1,702697375413924E+005	1,0902900E+000	1,0910492E+000	-1,372626250141156E-001	1,000000000000000E+000	-1,9197831E-001	40	-1,4976028E-004
2	0	0	1	0	1,704994981773396E+005	1,0245013E+000	1,0252587E+000	-1,017468574564077E-001	1,000000000000000E+000	-2,2186388E-001	40	-1,0431684E-004
2	0	0	1	0	1,707314576136339E+005	1,1404811E+000	1,1412492E+000	-5,922159864145404E-002	1,000000000000000E+000	-2,3954079E-001	40	-6,7586603E-005
2	0	0	1	0	1,709634173499253E+005	1,2564607E+000	1,2572671E+000	-4,012444273587787E-002	1,000000000000000E+000	-2,5086275E-001	41	-5,0447143E-005
2	0	0	1	0	1,711953770862194E+005	1,3724405E+000	1,3732127E+000	-2,566882441740839E-002	1,000000000000000E+000	-2,5844416E-001	41	-3,5248755E-005
2	0	0	1	0	1,714273366225120E+005	1,4884202E+000	1,4891834E+000	-6,447157860179568E-003	1,000000000000000E+000	-2,6237220E-001	41	-9,6010008E-006
2	1	0	1	0	1,716594962588346E+005	1,6044999E+000	1,6051338E+000	6,354446725851330E-002	1,000000000000000E+000	-2,5860184E-001	41	1,0199737E-004
2	1	0	1	0	1,718914558951287E+005	1,7204792E+000	1,7211616E+000	3,447730484365152E-001	1,000000000000000E+000	-2,1276139E-001	40	5,9341011E-004
2	1	0	1	0	1,721234155314206E+005	1,8364592E+000	1,8371437E+000	3,631418731204095E-001	1,000000000000000E+000	-1,1990762E-001	40	6,6714379E-004
2	1	0	1	0	1,723553752677140E+005	1,9524390E+000	1,9531766E+000	1,370712676349801E-001	1,000000000000000E+000	-6,3794374E-002	40	2,6772439E-004
2	1	0	1	0	1,725873350040074E+005	2,0684185E+000	2,0691383E+000	5,496385981372404E-002	1,000000000000000E+000	-4,3717008E-002	40	1,1372782E-004
2	1	0	1	0	1,728192950402992E+005	2,1843984E+000	2,1851387E+000	3,375563702875256E-002	1,000000000000000E+000	-3,3879239E-002	41	7,3760748E-005
2	1	0	1	0	1,730512547765933E+005	2,3003778E+000	2,3011339E+000	2,602893645381876E-002	1,000000000000000E+000	-2,7035434E-002	41	5,9896069E-005
2	1	0	1	0	1,732832145128846E+005	2,4163575E+000	2,4171095E+000	2,282709737593469E-002	1,000000000000000E+000	-2,1387203E-002	41	5,5175595E-005
2	1	0	1	0	1,735151745491792E+005	2,5323370E+000	2,5331283E+000	2,047349168689316E-002	1,000000000000000E+000	-1,6328182E-002	41	5,1861982E-005
2	1	0	1	0	1,737471345854704E+005	2,6483169E+000	2,6490989E+000	1,939642146737464E-002	1,000000000000000E+000	-1,1700029E-002	41	5,1383038E-005
2	1	0	1	0	1,739790947217643E+005	2,7642965E+000	2,7650621E+000	1,806112623532125E-002	1,000000000000000E+000	-7,3690536E-003	41	4,9940136E-005
2	1	0	1	0	1,742110544580566E+005	2,8802764E+000	2,8810756E+000	1,863133062853006E-002	1,000000000000000E+000	-3,0247367E-003	41	5,3678272E-005
2	1	0	1	0	1,744430142943489E+005	2,9962561E+000	2,9970672E+000	1,865700421838992E-002	1,000000000000000E+000	1,2978549E-003	41	5,5916295E-005
2	1	0	1	1	1,746715743301099E+005	2,8894746E+000	2,8902411E+000	2,841609488217618E-003	1,000000000000000E+000	2,8972698E-003	42	8,2129363E-006
2	0	0	1	1	1,749035335664041E+005	2,7734950E+000	2,7743049E+000	-8,942288933749278E-005	1,000000000000000E+000	3,1325002E-003	43	-2,4808637E-007
2	0	0	1	1	1,751354931026958E+005	2,6575153E+000	2,6583207E+000	-1,780832609432761E-003	1,000000000000000E+000	2,8957392E-003	42	-4,7340241E-006
2	0	0	1	1	1,753674522389884E+005	2,5415359E+000	2,5423806E+000	-3,427368082215190E-003	1,000000000000000E+000	2,1923778E-003	42	-8,7136741E-006
2	0	0	1	1	1,755994116752818E+005	2,4255559E+000	2,4264121E+000	-4,970235589755512E-003	1,000000000000000E+000	1,1731965E-003	42	-1,2059840E-005
2	0	0	1	1	1,758313709115735E+005	2,3095765E+000	2,3104446E+000	-5,947051544472119E-003	1,000000000000000E+000	-1,1768414E-004	42	-1,3740333E-005
2	0	0	1	1	1,760605311474290E+005	2,1949964E+000	2,1958718E+000	-7,667728441484278E-003	2,000000000000000E+000	-1,6950072E-003	42	-1,6837348E-005
2	0	0	1	1	1,762924903837219E+005	2,0790167E+000	2,0797951E+000	-1,050143500231132E-002	2,000000000000000E+000	-3,8200491E-003	41	-2,1840833E-005
2	0	0	1	1	1,765244499200140E+005	1,9630370E+000	1,9638437E+000	-1,487649280071521E-002	2,000000000000000E+000	-6,7837858E-003	41	-2,9215107E-005
2	0	0	1	1	1,767564092563083E+005	1,8470575E+000	1,8478694E+000	-2,144826752432631E-002	2,000000000000000E+000	-1,0959025E-002	41	-3,9633596E-005
2	0	0	1	1	1,769883685925999E+005	1,7310777E+000	1,7318436E+000	-3,569417649543871E-002	2,000000000000000E+000	-1,7403081E-002	41	-6,1816732E-005
2	0	0	1	1	1,772203279288928E+005	1,6150980E+000	1,6159297E+000	-6,530065049855638E-002	2,000000000000000E+000	-2,8755952E-002	41	-1,0552126E-004
2	0	0	1	1	1,774522874651868E+005	1,4991182E+000	1,4998996E+000	-1,684519442198971E-001	2,000000000000000E+000	-5,2929588E-002	40	-2,5266100E-004
2	0	0	1	1	1,776842468014776E+005	1,3831385E+000	1,3839130E+000	-1,918164755385552E-001	2,000000000000000E+000	-9,7268365E-002	40	-2,6545732E-004
2	0	0	1	1	1,779162060377719E+005	1,2671590E+000	1,2679492E+000	-1,660483415028509E-001	2,000000000000000E+000	-1,3926341E-001	40	-2,1054086E-004
2	0	0	1	1	1,781481655740635E+005	1,1511792E+000	1,1519603E+000	-1,432055620273567E-001	2,000000000000000E+000	-1,7494577E-001	40	-1,6496712E-004
2	0	0	1	1	1,783801249103567E+005	1,0351995E+000	1,0359706E+000	-1,323937446912495E-001	2,000000000000000E+000	-2,0669505E-001	40	-1,3715602E-004
2	0	0	1	1	1,786096854462733E+005	1,0794917E+000	1,0802686E+000	-7,430835394091773E-002	2,000000000000000E+000	-2,3088197E-001	40	-8,0272985E-005
2	0	0	1	1	1,788416450825678E+005	1,1954714E+000	1,1962490E+000	-4,866750715029267E-002	2,000000000000000E+000	-2,4473216E-001	40	-5,8218458E-005
2	0	0	1	1	1,790736048188591E+005	1,3114512E+000	1,3122464E+000	-3,298420149592834E-002	2,000000000000000E+000	-2,5409883E-001	41	-4,3283402E-005
2	0	0	1	1	1,793055642551528E+005	1,4274310E+000	1,4281805E+000	-1,796061549329523E-002	2,000000000000000E+000	-2,6005128E-001	41	-2,5650999E-005
2	1	0	1	1	1,795375239914451E+005	1,5434105E+000	1,5441663E+000	1,082540423587500E-002	2,000000000000000E+000	-2,6141939E-001	41	1,6716225E-005
2	1	0	1	1	1,797694837277378E+005	1,6593902E+000	1,6601211E+000	1,929437022644436E-001	2,000000000000000E+000	-2,4389215E-001	40	3,2030992E-004
2	1	0	1	1	1,800014434640314E+005	1,7753699E+000	1,7760811E+000	4,293203776932408E-001	2,000000000000000E+000	-1,6605493E-001	40	7,6250779E-004
2	1	0	1	1	1,802334030003229E+005	1,8913497E+000	1,8920623E+000	2,356478811208715E-001	2,000000000000000E+000	-8,3778143E-002	40	4,4586047E-004
2	1	0	1	1	1,804653628366170E+005	2,0073295E+000	2,0080671E+000	7,960312604859610E-002	2,000000000000000E+000	-5,0884150E-002	40	1,5984842E-004
2	1	0	1	1	1,806973225729088E+005	2,1233089E+000	2,1240129E+000	4,064870173321494E-002	2,000000000000000E+000	-3,7870284E-002	41	8,6338368E-005
2	1	0	1	1	1,809292823092027E+005	2,2392888E+000	2,2400322E+000	2,896097395518749E-002	2,000000000000000E+000	-2,9957527E-002	41	6,4873515E-005
2	1	0	1	1	1,811612425454953E+005	2,3552682E+000	2,3559997E+000	2,389622866690350E-002	2,000000000000000E+000	-2,3853643E-002	41	5,6299508E-005
2	1	0	1	1	1,813932022817875E+005	2,4712479E+000	2,4720175E+000	2,146326706144835E-002	2,000000000000000E+000	-1,8552711E-002	41	5,3057571E-005
2	1	0	1	1	1,816251622180808E+005	2,5872276E+000	2,5880339E+000	1,940917129146125E-002	2,000000000000000E+000	-1,3781602E-002	41	5,0231592E-005
2	1	0	1	1	1,818571222543726E+005	2,7032075E+000	2,7040057E+000	1,808214499766403E-002	2,000000000000000E+000	-9,3335910E-003	41	4,8894224E-005
2	1	0	1	1	1,820890820906674E+005	2,8191874E+000	2,8199866E+000	1,838162967200185E-002	2,000000000000000E+000	-5,1377756E-003	41	5,1835948E-005
2	1	0	1	1	1,823210418269583E+005	2,9351664E+000	2,9359696E+000	1,804602769052410E-002	2,000000000000000E+000	-8,4774726E-004	41	5,2982588E-005
2	1	0	1	0	1,825498023627521E+005	2,9504638E+000	2,9512784E+000	6,169365129013074E-003	2,000000000000000E+000	2,4458927E-003	41	1,8207515E-005
2	1	0	1	0	1,827817615990439E+005	2,8344843E+000	2,8353014E+000	1,069430635443782E-003	2,000000000000000E+000	3,1230305E-003	42	3,0321582E-006
2	0	0	1	0	1,830137208353383E+005	2,7185049E+000	2,7193174E+000	-8,127689735023813E-004	2,000000000000000E+000	3,0912694E-003	42	-2,2101769E-006
2	0	0	1	0	1,832456802716297E+005	2,6025252E+000	2,6033785E+000	-3,075849261936828E-003	2,000000000000000E+000	2,6288149E-003	42	-8,0075997E-006
2	0	0	1	0	1,834776395079221E+005	2,4865456E+000	2,4873681E+000	-4,198894033297845E-003	2,000000000000000E+000	1,7853614E-003	42	-1,0444195E-005
2	0	0	1	0	1,837095989442170E+005	2,3705657E+000	2,3714211E+000	-5,300625712305166E-003	2,000000000000000E+000	6,2139635E-004	42	-1,2570015E-005
2	0	0	1	0	1,839415585805075E+005	2,2545860E+000	2,2554524E+000	-6,614231330562603E-003	2,000000000000000E+000	-7,8389590E-004	42	-1,4918084E-005
2	0	0	1	0	1,839513271820368E+005	2,2496376E+000	2,2504759E+000	-7,077139014234929E-003	2,000000000000000E+000	-8,5056067E-004	42	-1,5926931E-005