File: Dati/210416_2/CV_LTO-CB_grafite nuova_15 layers__03_CV_C01.mpt
EC-Lab ASCII FILE
Nb header lines : 57

Cyclic Voltammetry

Run on channel : 1 (SN 6806)
User : Seelab
Electrode connection : standard
Ewe ctrl range : min = 0,00 V, max = 5,00 V
Ewe,I filtering : 50 kHz
Safety Limits :
	Do not start on E overload
Channel : Grounded
Acquisition started on : 04/16/2021 18:47:00
Saved on :
	File : CV_LTO-CB_grafite nuova_15 layers__03_CV_C01.mpr
	Directory : C:\Users\labsuperfici\Desktop\Biologic\Users\Prisca Viviani\210416_2\
	Host : 10.78.33.0
Device : VSP-300 (SN 0638)
Address : USB
EC-Lab for windows v11.31 (software)
Internet server v11.30 (firmware)
Command interpretor v11.31 (firmware)
Electrode material :
Initial state :
Electrolyte :
Comments :
Cable : standard
Reference electrode : SCE Saturated Calomel Electrode (0,241 V)
Electrode surface area : 0,001 cm²
Characteristic mass : 0,001 g
Equivalent Weight : 0,000 g/eq.
Density : 0,000 g/cm3
Cycle Definition : Charge/Discharge alternance
Ei (V)              0,000
vs.                 Eoc
dE/dt               0,200
dE/dt unit          mV/s
E1 (V)              1,000
vs.                 Ref
Step percent        50
N                   10
E range min (V)     0,000
E range max (V)     5,000
I Range             Auto
I Range min         Unset
I Range max         Unset
I Range init        Unset
Bandwidth           8
E2 (V)              3,000
vs.                 Ref
nc cycles           1
Reverse Scan        1
Ef (V)              0,000
vs.                 Eoc

mode	ox/red	error	control changes	counter inc.	time/s	control/V	Ewe/V	<I>/mA	cycle number	(Q-Qo)/C	I Range	P/W
2	0	0	0	0	8,128181388588250E+004	2,2496376E+000	2,2504187E+000	-1,735280267894268E-003	1,000000000000000E+000	0,0000000E+000	42	-3,9051070E-006
2	0	0	1	0	8,185946104923883E+004	2,1341071E+000	2,1349268E+000	-4,030155112027450E-003	1,000000000000000E+000	-1,8433557E-003	42	-8,6040864E-006
2	0	0	1	0	8,243935691206693E+004	2,0181274E+000	2,0189857E+000	-5,949376948453503E-003	1,000000000000000E+000	-4,7404566E-003	42	-1,2011707E-005
2	0	0	1	0	8,301925467489450E+004	1,9021479E+000	1,9030135E+000	-8,777746649240858E-003	1,000000000000000E+000	-8,9376448E-003	42	-1,6704171E-005
2	0	0	1	0	8,359915263772151E+004	1,7861681E+000	1,7869376E+000	-1,345348611102146E-002	1,000000000000000E+000	-1,5239622E-002	41	-2,4040541E-005
2	0	0	1	0	8,417905060054874E+004	1,6701883E+000	1,6709800E+000	-2,314457044321139E-002	1,000000000000000E+000	-2,5625257E-002	41	-3,8674112E-005
2	0	0	1	0	8,475894846337638E+004	1,5542089E+000	1,5550103E+000	-4,192294955108153E-002	1,000000000000000E+000	-4,3551896E-002	41	-6,5190616E-005
2	0	0	1	0	8,533884632620425E+004	1,4382288E+000	1,4389679E+000	-1,047561573724021E-001	1,000000000000000E+000	-8,5793376E-002	40	-1,5074076E-004
2	0	0	1	0	8,591874428903218E+004	1,3222492E+000	1,3230011E+000	-1,089573593110892E-001	1,000000000000000E+000	-1,4980921E-001	40	-1,4415070E-004
2	0	0	1	0	8,649864185186022E+004	1,2062695E+000	1,2070200E+000	-8,928475841114647E-002	1,000000000000000E+000	-2,0718101E-001	40	-1,0776849E-004
2	0	0	1	0	8,707853991468769E+004	1,0902900E+000	1,0910289E+000	-7,566028701251970E-002	1,000000000000000E+000	-2,5474849E-001	40	-8,2547565E-005
2	0	0	1	0	8,765294027881627E+004	1,0245014E+000	1,0252590E+000	-5,353535918977692E-002	1,000000000000000E+000	-2,9499894E-001	40	-5,4887609E-005
2	0	0	1	0	8,823283964164788E+004	1,1404811E+000	1,1412523E+000	-2,843301909063374E-002	1,000000000000000E+000	-3,1727383E-001	41	-3,2449247E-005
2	0	0	1	0	8,881273940447951E+004	1,2564608E+000	1,2572185E+000	-1,781592907777434E-002	1,000000000000000E+000	-3,3035016E-001	41	-2,2398515E-005
2	0	0	1	0	8,939263906731107E+004	1,3724405E+000	1,3732184E+000	-1,042192863825303E-002	1,000000000000000E+000	-3,3845827E-001	41	-1,4311584E-005
2	0	0	1	0	8,997253833014396E+004	1,4884202E+000	1,4891859E+000	-1,152377909600119E-003	1,000000000000000E+000	-3,4203377E-001	42	-1,7161050E-006
2	1	0	1	0	9,055243779297735E+004	1,6043998E+000	1,6050916E+000	4,069796145432025E-002	1,000000000000000E+000	-3,3555582E-001	41	6,5323955E-005
2	1	0	1	0	9,113233775581012E+004	1,7203798E+000	1,7210943E+000	1,749141208215282E-001	1,000000000000000E+000	-2,7358794E-001	40	3,0104368E-004
2	1	0	1	0	9,171223711864278E+004	1,8363590E+000	1,8371279E+000	1,904804006402729E-001	1,000000000000000E+000	-1,5469332E-001	40	3,4993686E-004
2	1	0	1	0	9,229213688147417E+004	1,9523389E+000	1,9531226E+000	6,718963522755461E-002	1,000000000000000E+000	-8,2046852E-002	40	1,3122959E-004
2	1	0	1	0	9,287203704430559E+004	2,0683184E+000	2,0690427E+000	2,474579100917856E-002	1,000000000000000E+000	-5,8470029E-002	41	5,1200099E-005
2	1	0	1	0	9,345193710713828E+004	2,1842983E+000	2,1850541E+000	1,550426320799692E-002	1,000000000000000E+000	-4,7303475E-002	41	3,3877652E-005
2	1	0	1	0	9,403183716997027E+004	2,3002777E+000	2,3010511E+000	1,220558694121172E-002	1,000000000000000E+000	-3,9359167E-002	41	2,8085680E-005
2	1	0	1	0	9,461173643280240E+004	2,4162576E+000	2,4170294E+000	1,067205411534668E-002	1,000000000000000E+000	-3,2757986E-002	41	2,5794669E-005
2	1	0	1	0	9,519163589563547E+004	2,5322375E+000	2,5330453E+000	9,616241472579140E-003	1,000000000000000E+000	-2,6805092E-002	41	2,4358375E-005
2	1	0	1	0	9,577153495846828E+004	2,6482172E+000	2,6489992E+000	9,003861449047745E-003	1,000000000000000E+000	-2,1429528E-002	41	2,3851222E-005
2	1	0	1	0	9,635143482130067E+004	2,7641964E+000	2,7650115E+000	8,906123507142316E-003	1,000000000000000E+000	-1,6279722E-002	41	2,4625535E-005
2	1	0	1	0	9,693133488413086E+004	2,8801763E+000	2,8809943E+000	1,045253669272674E-002	1,000000000000000E+000	-1,0369109E-002	41	3,0113699E-005
2	1	0	1	0	9,751123424696036E+004	2,9961565E+000	2,9969871E+000	1,015119714945309E-002	1,000000000000000E+000	-4,5069037E-003	41	3,0423007E-005
2	1	0	1	1	9,808313191166893E+004	2,8894746E+000	2,8902850E+000	1,760580302506726E-003	1,000000000000000E+000	-2,1616649E-003	42	5,0885787E-006
2	1	0	1	1	9,866302807449643E+004	2,7734952E+000	2,7742927E+000	1,066563370384476E-004	1,000000000000000E+000	-1,7390236E-003	43	2,9589589E-007
2	0	0	1	1	9,924292453732435E+004	2,6575155E+000	2,6584299E+000	-8,045627123415555E-004	1,000000000000000E+000	-1,9511614E-003	43	-2,1388735E-006
2	0	0	1	1	9,982282040015250E+004	2,5415356E+000	2,5423675E+000	-1,503640547830838E-003	1,000000000000000E+000	-2,7071375E-003	42	-3,8228068E-006
2	0	0	1	1	1,004027162629806E+005	2,4255559E+000	2,4263647E+000	-2,227407155265794E-003	1,000000000000000E+000	-3,8375899E-003	42	-5,4045022E-006
2	0	0	1	1	1,009826119258101E+005	2,3095763E+000	2,3103902E+000	-2,740758647512099E-003	1,000000000000000E+000	-5,3038201E-003	42	-6,3322218E-006
2	0	0	1	1	1,015555101902811E+005	2,1949964E+000	2,1958210E+000	-3,575507377011247E-003	2,000000000000000E+000	-7,1289856E-003	42	-7,8511739E-006
2	0	0	1	1	1,021354060531110E+005	2,0790167E+000	2,0798628E+000	-4,917440744055604E-003	2,000000000000000E+000	-9,5990729E-003	42	-1,0227603E-005
2	0	0	1	1	1,027153028159403E+005	1,9630371E+000	1,9638945E+000	-7,046695069578973E-003	2,000000000000000E+000	-1,3079948E-002	42	-1,3838966E-005
2	0	0	1	1	1,032952006787711E+005	1,8470575E+000	1,8478352E+000	-1,053235764700440E-002	2,000000000000000E+000	-1,8157668E-002	41	-1,9462061E-005
2	0	0	1	1	1,038750987416047E+005	1,7310777E+000	1,7318336E+000	-1,752138589250585E-002	2,000000000000000E+000	-2,6075136E-002	41	-3,0344125E-005
2	0	0	1	1	1,044549967044380E+005	1,6150981E+000	1,6159005E+000	-3,044534768080631E-002	2,000000000000000E+000	-3,9692756E-002	41	-4,9196653E-005
2	0	0	1	1	1,050348945672712E+005	1,4991184E+000	1,4999723E+000	-8,286544103389848E-002	2,000000000000000E+000	-6,7920730E-002	41	-1,2429587E-004
2	0	0	1	1	1,056147924301038E+005	1,3831387E+000	1,3839036E+000	-1,121527437811722E-001	2,000000000000000E+000	-1,2965943E-001	40	-1,5520859E-004
2	0	0	1	1	1,061946900929362E+005	1,2671589E+000	1,2679226E+000	-9,386809733200840E-002	2,000000000000000E+000	-1,9026059E-001	40	-1,1901749E-004
2	0	0	1	1	1,067745880557690E+005	1,1511793E+000	1,1519535E+000	-7,766442836740606E-002	2,000000000000000E+000	-2,3971829E-001	40	-8,9465808E-005
2	0	0	1	1	1,073544858186010E+005	1,0351995E+000	1,0359792E+000	-6,865057227910387E-002	2,000000000000000E+000	-2,8172347E-001	40	-7,1120565E-005
2	0	0	1	1	1,079283866828633E+005	1,0794917E+000	1,0803044E+000	-3,611860735905414E-002	2,000000000000000E+000	-3,1245059E-001	41	-3,9019091E-005
2	0	0	1	1	1,085082864456959E+005	1,1954714E+000	1,1962516E+000	-2,177995461560014E-002	2,000000000000000E+000	-3,2865411E-001	41	-2,6054306E-005
2	0	0	1	1	1,090881862085286E+005	1,3114512E+000	1,3122718E+000	-1,370834460468309E-002	2,000000000000000E+000	-3,3876461E-001	41	-1,7989074E-005
2	0	0	1	1	1,096680854713619E+005	1,4274309E+000	1,4281487E+000	-6,413984624547935E-003	2,000000000000000E+000	-3,4463242E-001	41	-9,1601241E-006
2	1	0	1	1	1,102479852341917E+005	1,5434105E+000	1,5440743E+000	7,540287679717178E-003	2,000000000000000E+000	-3,4501845E-001	42	1,1642765E-005
2	1	0	1	1	1,108278848970209E+005	1,6593902E+000	1,6601198E+000	1,090889317995993E-001	2,000000000000000E+000	-3,1846428E-001	40	1,8110070E-004
2	1	0	1	1	1,114077845598506E+005	1,7753698E+000	1,7760851E+000	2,246955839616858E-001	2,000000000000000E+000	-2,1391656E-001	40	3,9907848E-004
2	1	0	1	1	1,119876843226776E+005	1,8913496E+000	1,8920913E+000	1,181094813961883E-001	2,000000000000000E+000	-1,0843269E-001	40	2,2347392E-004
2	1	0	1	1	1,125675838855037E+005	2,0073292E+000	2,0080564E+000	3,773431208757094E-002	2,000000000000000E+000	-6,8070441E-002	41	7,5772630E-005
2	1	0	1	1	1,131474844483316E+005	2,1233091E+000	2,1240661E+000	1,865551677980526E-002	2,000000000000000E+000	-5,2998371E-002	41	3,9625553E-005
2	1	0	1	1	1,137273839111594E+005	2,2392886E+000	2,2400522E+000	1,331326704276153E-002	2,000000000000000E+000	-4,3933026E-002	41	2,9822413E-005
2	1	0	1	1	1,143072832739875E+005	2,3552685E+000	2,3560219E+000	1,103521546763298E-002	2,000000000000000E+000	-3,6906943E-002	41	2,5999208E-005
2	1	0	1	1	1,148871826368147E+005	2,4712479E+000	2,4720275E+000	9,938618754484790E-003	2,000000000000000E+000	-3,0803263E-002	41	2,4568539E-005
2	1	0	1	1	1,154670826996409E+005	2,5872276E+000	2,5880344E+000	8,905710344307399E-003	2,000000000000000E+000	-2,5276449E-002	41	2,3048284E-005
2	1	0	1	1	1,160469825624671E+005	2,7032073E+000	2,7039993E+000	8,441398328473737E-003	2,000000000000000E+000	-2,0145074E-002	41	2,2825536E-005
2	1	0	1	1	1,166268820252942E+005	2,8191872E+000	2,8200047E+000	9,577813384679820E-003	2,000000000000000E+000	-1,5081765E-002	41	2,7009479E-005
2	1	0	1	1	1,172067813881215E+005	2,9351668E+000	2,9359837E+000	9,241986381771178E-003	2,000000000000000E+000	-9,4800061E-003	41	2,7134321E-005
2	1	0	1	0	1,177786814528281E+005	2,9504642E+000	2,9512582E+000	3,419555863866261E-003	2,000000000000000E+000	-5,1392904E-003	42	1,0091992E-005
2	1	0	1	0	1,183585772156586E+005	2,8344843E+000	2,8353186E+000	6,767910769746510E-004	2,000000000000000E+000	-4,1523208E-003	42	1,9189183E-006
2	0	0	1	0	1,189384730784900E+005	2,7185047E+000	2,7193501E+000	-3,303720551103423E-004	2,000000000000000E+000	-4,1263103E-003	43	-8,9839727E-007
2	0	0	1	0	1,195183689413221E+005	2,6025250E+000	2,6033723E+000	-1,370822544034744E-003	2,000000000000000E+000	-4,6485788E-003	42	-3,5687615E-006
2	0	0	1	0	1,200982647041546E+005	2,4865456E+000	2,4873857E+000	-1,896378696560105E-003	2,000000000000000E+000	-5,5936347E-003	42	-4,7170251E-006
2	0	0	1	0	1,206781618669869E+005	2,3705654E+000	2,3713689E+000	-2,428187693769984E-003	2,000000000000000E+000	-6,9161095E-003	42	-5,7581287E-006
2	0	0	1	0	1,212580583298197E+005	2,2545860E+000	2,2553847E+000	-3,057299221498624E-003	2,000000000000000E+000	-8,5303299E-003	42	-6,8953859E-006
2	0	0	1	0	1,212824790240636E+005	2,2496376E+000	2,2504263E+000	-3,263349532686782E-003	2,000000000000000E+000	-8,6073158E-003	42	-7,3439278E-006