File: Dati/210416_2/CV_LTO-CB_grafite nuova_15 layers__05_CV_C01.mpt
EC-Lab ASCII FILE
Nb header lines : 57

Cyclic Voltammetry

Run on channel : 1 (SN 6806)
User : Seelab
Electrode connection : standard
Ewe ctrl range : min = 0,00 V, max = 5,00 V
Ewe,I filtering : 50 kHz
Safety Limits :
	Do not start on E overload
Channel : Grounded
Acquisition started on : 04/16/2021 18:47:00
Saved on :
	File : CV_LTO-CB_grafite nuova_15 layers__05_CV_C01.mpr
	Directory : C:\Users\labsuperfici\Desktop\Biologic\Users\Prisca Viviani\210416_2\
	Host : 10.78.33.0
Device : VSP-300 (SN 0638)
Address : USB
EC-Lab for windows v11.31 (software)
Internet server v11.30 (firmware)
Command interpretor v11.31 (firmware)
Electrode material :
Initial state :
Electrolyte :
Comments :
Cable : standard
Reference electrode : SCE Saturated Calomel Electrode (0,241 V)
Electrode surface area : 0,001 cm²
Characteristic mass : 0,001 g
Equivalent Weight : 0,000 g/eq.
Density : 0,000 g/cm3
Cycle Definition : Charge/Discharge alternance
Ei (V)              0,000
vs.                 Eoc
dE/dt               0,400
dE/dt unit          mV/s
E1 (V)              1,000
vs.                 Ref
Step percent        50
N                   10
E range min (V)     0,000
E range max (V)     5,000
I Range             Auto
I Range min         Unset
I Range max         Unset
I Range init        Unset
Bandwidth           8
E2 (V)              3,000
vs.                 Ref
nc cycles           1
Reverse Scan        1
Ef (V)              0,000
vs.                 Eoc

mode	ox/red	error	control changes	counter inc.	time/s	control/V	Ewe/V	<I>/mA	cycle number	(Q-Qo)/C	I Range	P/W
2	0	0	1	0	1,479503961492679E+005	2,2496376E+000	2,2504454E+000	-4,634588025510311E-003	1,000000000000000E+000	0,0000000E+000	42	-1,0429887E-005
2	0	0	1	0	1,482392204944582E+005	2,1341069E+000	2,1349788E+000	-7,409365206030888E-003	1,000000000000000E+000	-1,8062560E-003	42	-1,5818838E-005
2	0	0	1	0	1,485291695398253E+005	2,0181272E+000	2,0188973E+000	-1,060387055166220E-002	1,000000000000000E+000	-4,4178511E-003	41	-2,1408125E-005
2	0	0	1	0	1,488191187851913E+005	1,9021477E+000	1,9029363E+000	-1,511092276524961E-002	1,000000000000000E+000	-8,1303557E-003	41	-2,8755125E-005
2	0	0	1	0	1,491090679305554E+005	1,7861679E+000	1,7869483E+000	-2,310423336712514E-002	1,000000000000000E+000	-1,3548989E-002	41	-4,1286072E-005
2	0	0	1	0	1,493990168759223E+005	1,6701883E+000	1,6710124E+000	-4,045508395724118E-002	1,000000000000000E+000	-2,2509411E-002	41	-6,7600944E-005
2	0	0	1	0	1,496889660212891E+005	1,5542086E+000	1,5550464E+000	-7,891821615834793E-002	1,000000000000000E+000	-3,8831599E-002	41	-1,2272150E-004
2	0	0	1	0	1,499789149666545E+005	1,4382288E+000	1,4389927E+000	-1,657793640670662E-001	1,000000000000000E+000	-7,6471783E-002	40	-2,3855529E-004
2	0	0	1	0	1,502688642120194E+005	1,3222493E+000	1,3230273E+000	-1,594607486759623E-001	1,000000000000000E+000	-1,2450312E-001	40	-2,1097092E-004
2	0	0	1	0	1,505588129573861E+005	1,2062696E+000	1,2070366E+000	-1,341884825169424E-001	1,000000000000000E+000	-1,6690262E-001	40	-1,6197041E-004
2	0	0	1	0	1,508487621027536E+005	1,0902898E+000	1,0910445E+000	-1,180371781465386E-001	1,000000000000000E+000	-2,0327854E-001	40	-1,2878382E-004
2	0	0	1	0	1,511359627476889E+005	1,0245014E+000	1,0252498E+000	-8,696357967065443E-002	1,000000000000000E+000	-2,3524977E-001	40	-8,9159395E-005
2	0	0	1	0	1,514259119930533E+005	1,1404811E+000	1,1411951E+000	-5,080199752250947E-002	1,000000000000000E+000	-2,5414237E-001	40	-5,7974990E-005
2	0	0	1	0	1,517158614384197E+005	1,2564607E+000	1,2572643E+000	-3,412105586125519E-002	1,000000000000000E+000	-2,6627535E-001	41	-4,2899184E-005
2	0	0	1	0	1,520058110837863E+005	1,3724405E+000	1,3732284E+000	-2,150548245340573E-002	1,000000000000000E+000	-2,7428472E-001	41	-2,9531941E-005
2	0	0	1	0	1,522957605291530E+005	1,4884200E+000	1,4891776E+000	-5,203598337981855E-003	1,000000000000000E+000	-2,7836680E-001	41	-7,7490822E-006
2	1	0	1	0	1,525857097745179E+005	1,6043997E+000	1,6050795E+000	5,437644961040444E-002	1,000000000000000E+000	-2,7428019E-001	41	8,7278524E-005
2	1	0	1	0	1,528756595198829E+005	1,7203796E+000	1,7210975E+000	2,895123277119875E-001	1,000000000000000E+000	-2,2658320E-001	40	4,9827894E-004
2	1	0	1	0	1,531656088652497E+005	1,8363591E+000	1,8370541E+000	3,102632940172150E-001	1,000000000000000E+000	-1,2773129E-001	40	5,6997046E-004
2	1	0	1	0	1,534555583106177E+005	1,9523387E+000	1,9530784E+000	1,182284776404152E-001	1,000000000000000E+000	-6,7838743E-002	40	2,3090949E-004
2	1	0	1	0	1,537455078559821E+005	2,0683184E+000	2,0690224E+000	4,655558645116983E-002	1,000000000000000E+000	-4,6059672E-002	41	9,6324555E-005
2	1	0	1	0	1,540354581013471E+005	2,1842980E+000	2,1850419E+000	2,809695609365453E-002	1,000000000000000E+000	-3,5746336E-002	41	6,1393024E-005
2	1	0	1	0	1,543254080467138E+005	2,3002779E+000	2,3010335E+000	2,172734139239768E-002	1,000000000000000E+000	-2,8603766E-002	41	4,9995342E-005
2	1	0	1	0	1,546153580920802E+005	2,4162576E+000	2,4170103E+000	1,889163996191312E-002	1,000000000000000E+000	-2,2731815E-002	41	4,5661287E-005
2	1	0	1	0	1,549053076374475E+005	2,5322373E+000	2,5330305E+000	1,712235584393926E-002	1,000000000000000E+000	-1,7466640E-002	41	4,3371449E-005
2	1	0	1	0	1,551952572828121E+005	2,6482167E+000	2,6490364E+000	1,616779837519061E-002	1,000000000000000E+000	-1,2650828E-002	41	4,2829088E-005
2	1	0	1	0	1,554852076281770E+005	2,7641969E+000	2,7649713E+000	1,510576325547289E-002	1,000000000000000E+000	-8,1535289E-003	41	4,1767002E-005
2	1	0	1	0	1,557751574735442E+005	2,8801765E+000	2,8809726E+000	1,581137186097620E-002	1,000000000000000E+000	-3,5519700E-003	41	4,5552129E-005
2	1	0	1	0	1,560651075189107E+005	2,9961560E+000	2,9970040E+000	1,588411360641590E-002	1,000000000000000E+000	1,0212500E-003	41	4,7604753E-005
2	1	0	1	1	1,563510570636517E+005	2,8894749E+000	2,8902588E+000	2,484393528757308E-003	1,000000000000000E+000	2,7601849E-003	42	7,1805403E-006
2	1	0	1	1	1,566410060090162E+005	2,7734952E+000	2,7743266E+000	-3,886625234024175E-005	1,000000000000000E+000	3,0248391E-003	43	-1,0782767E-007
2	0	0	1	1	1,569309552543820E+005	2,6575153E+000	2,6583462E+000	-1,483652870032375E-003	1,000000000000000E+000	2,7884201E-003	42	-3,9440629E-006
2	0	0	1	1	1,572209040997489E+005	2,5415354E+000	2,5423698E+000	-2,854951132879820E-003	1,000000000000000E+000	2,0561784E-003	42	-7,2583416E-006
2	0	0	1	1	1,575108531451151E+005	2,4255559E+000	2,4263763E+000	-4,154334034670901E-003	1,000000000000000E+000	9,9912041E-004	42	-1,0079978E-005
2	0	0	1	1	1,578008019904792E+005	2,3095763E+000	2,3104076E+000	-4,918988475333688E-003	1,000000000000000E+000	-3,3754230E-004	42	-1,1364868E-005
2	0	0	1	1	1,580872522352983E+005	2,1949964E+000	2,1958547E+000	-6,365015560795738E-003	2,000000000000000E+000	-1,9733431E-003	42	-1,3976649E-005
2	0	0	1	1	1,583772009806649E+005	2,0790167E+000	2,0798531E+000	-8,769321598085578E-003	2,000000000000000E+000	-4,1849040E-003	42	-1,8238901E-005
2	0	0	1	1	1,586671501260316E+005	1,9630369E+000	1,9638256E+000	-1,247929344380777E-002	2,000000000000000E+000	-7,2837574E-003	41	-2,4507155E-005
2	0	0	1	1	1,589570991713959E+005	1,8470573E+000	1,8478411E+000	-1,807579646228596E-002	2,000000000000000E+000	-1,1680960E-002	41	-3,3401200E-005
2	0	0	1	1	1,592470482167621E+005	1,7310777E+000	1,7318386E+000	-3,004191302981374E-002	2,000000000000000E+000	-1,8479206E-002	41	-5,2027743E-005
2	0	0	1	1	1,595369974621292E+005	1,6150979E+000	1,6158890E+000	-5,436789356129634E-002	2,000000000000000E+000	-3,0381070E-002	41	-8,7852481E-005
2	0	0	1	1	1,598269465074949E+005	1,4991182E+000	1,4999001E+000	-1,423611088196921E-001	2,000000000000000E+000	-5,5612128E-002	40	-2,1352744E-004
2	0	0	1	1	1,601168955528592E+005	1,3831385E+000	1,3839306E+000	-1,684232354186914E-001	2,000000000000000E+000	-1,0367508E-001	40	-2,3308606E-004
2	0	0	1	1	1,604068443982261E+005	1,2671590E+000	1,2678984E+000	-1,453326214741797E-001	2,000000000000000E+000	-1,4973716E-001	40	-1,8426700E-004
2	0	0	1	1	1,606967936435933E+005	1,1511791E+000	1,1519579E+000	-1,243820169690286E-001	2,000000000000000E+000	-1,8863522E-001	40	-1,4328284E-004
2	0	0	1	1	1,609867424889579E+005	1,0351994E+000	1,0359447E+000	-1,138304113722934E-001	2,000000000000000E+000	-2,2290571E-001	40	-1,1792201E-004
2	0	0	1	1	1,612736932338541E+005	1,0794919E+000	1,0802474E+000	-6,362296602609219E-002	2,000000000000000E+000	-2,4889201E-001	40	-6,8728543E-005
2	0	0	1	1	1,615636427792206E+005	1,1954714E+000	1,1962717E+000	-4,134015894879506E-002	2,000000000000000E+000	-2,6366565E-001	41	-4,9454062E-005
2	0	0	1	1	1,618535922245872E+005	1,3114512E+000	1,3122616E+000	-2,770004458597877E-002	2,000000000000000E+000	-2,7355364E-001	41	-3,6349706E-005
2	0	0	1	1	1,621435415699538E+005	1,4274307E+000	1,4281726E+000	-1,500247025681709E-002	2,000000000000000E+000	-2,7979922E-001	41	-2,1426116E-005
2	1	0	1	1	1,624334911153186E+005	1,5434104E+000	1,5440887E+000	9,760661878386839E-003	2,000000000000000E+000	-2,8115916E-001	42	1,5071328E-005
2	1	0	1	1	1,627234406606837E+005	1,6593903E+000	1,6601311E+000	1,686651076540580E-001	2,000000000000000E+000	-2,6174369E-001	40	2,8000618E-004
2	1	0	1	1	1,630133902060510E+005	1,7753699E+000	1,7760767E+000	3,748177664655961E-001	2,000000000000000E+000	-1,7597623E-001	40	6,6570507E-004
2	1	0	1	1	1,633033396514179E+005	1,8913498E+000	1,8920616E+000	1,979137000801781E-001	2,000000000000000E+000	-8,8771507E-002	40	3,7446490E-004
2	1	0	1	1	1,635932892967830E+005	2,0073292E+000	2,0080643E+000	6,934784260017068E-002	2,000000000000000E+000	-5,3543165E-002	40	1,3925493E-004
2	1	0	1	1	1,638832392421477E+005	2,1233089E+000	2,1240263E+000	3,417809983661835E-002	2,000000000000000E+000	-3,9606851E-002	41	7,2595183E-005
2	1	0	1	1	1,641731888875146E+005	2,2392886E+000	2,2400498E+000	2,405645450993188E-002	2,000000000000000E+000	-3,1366821E-002	41	5,3887656E-005
2	1	0	1	1	1,644631388328812E+005	2,3552682E+000	2,3560350E+000	1,976497718521941E-002	2,000000000000000E+000	-2,5051126E-002	41	4,6566976E-005
2	1	0	1	1	1,647530884782481E+005	2,4712477E+000	2,4720249E+000	1,776276359216848E-002	2,000000000000000E+000	-1,9571068E-002	41	4,3909993E-005
2	1	0	1	1	1,650430388236134E+005	2,5872276E+000	2,5880270E+000	1,609466112587565E-002	2,000000000000000E+000	-1,4622277E-002	41	4,1653417E-005
2	1	0	1	1	1,653329887689780E+005	2,7032073E+000	2,7039986E+000	1,502401796104239E-002	2,000000000000000E+000	-1,0003221E-002	41	4,0624924E-005
2	1	0	1	1	1,656229387143449E+005	2,8191867E+000	2,8200293E+000	1,552236915707320E-002	2,000000000000000E+000	-5,6226272E-003	41	4,3773536E-005
2	1	0	1	1	1,659128883597117E+005	2,9351666E+000	2,9359703E+000	1,524102544640538E-002	2,000000000000000E+000	-1,0890559E-003	41	4,4747198E-005
2	1	0	1	0	1,661988388044527E+005	2,9504638E+000	2,9512539E+000	5,228405445756881E-003	2,000000000000000E+000	2,4129692E-003	42	1,5430353E-005
2	1	0	1	0	1,664887878498170E+005	2,8344841E+000	2,8353305E+000	9,029662368764992E-004	2,000000000000000E+000	3,1373929E-003	42	2,5602078E-006
2	0	0	1	0	1,667787366951830E+005	2,7185047E+000	2,7193265E+000	-6,683623764432416E-004	2,000000000000000E+000	3,1101161E-003	42	-1,8174956E-006
2	0	0	1	0	1,670686856405495E+005	2,6025250E+000	2,6033859E+000	-2,576915869121454E-003	2,000000000000000E+000	2,6262235E-003	42	-6,7087067E-006
2	0	0	1	0	1,673586344859162E+005	2,4865456E+000	2,4874015E+000	-3,497015498541398E-003	2,000000000000000E+000	1,7460922E-003	42	-8,6984819E-006
2	0	0	1	0	1,676485838312805E+005	2,3705659E+000	2,3713877E+000	-4,407461259463712E-003	2,000000000000000E+000	5,3405121E-004	42	-1,0451799E-005
2	0	0	1	0	1,679385331766467E+005	2,2545857E+000	2,2554240E+000	-5,511994987474751E-003	2,000000000000000E+000	-9,2671852E-004	42	-1,2431886E-005
2	0	0	1	0	1,679507436785582E+005	2,2496376E+000	2,2505102E+000	-5,940040337457653E-003	2,000000000000000E+000	-9,9611434E-004	42	-1,3368121E-005