File: Dati/210416_2/CV_LTO-CB_grafite nuova_15 layers__04_CV_C01.mpt
EC-Lab ASCII FILE
Nb header lines : 57

Cyclic Voltammetry

Run on channel : 1 (SN 6806)
User : Seelab
Electrode connection : standard
Ewe ctrl range : min = 0,00 V, max = 5,00 V
Ewe,I filtering : 50 kHz
Safety Limits :
	Do not start on E overload
Channel : Grounded
Acquisition started on : 04/16/2021 18:47:00
Saved on :
	File : CV_LTO-CB_grafite nuova_15 layers__04_CV_C01.mpr
	Directory : C:\Users\labsuperfici\Desktop\Biologic\Users\Prisca Viviani\210416_2\
	Host : 10.78.33.0
Device : VSP-300 (SN 0638)
Address : USB
EC-Lab for windows v11.31 (software)
Internet server v11.30 (firmware)
Command interpretor v11.31 (firmware)
Electrode material :
Initial state :
Electrolyte :
Comments :
Cable : standard
Reference electrode : SCE Saturated Calomel Electrode (0,241 V)
Electrode surface area : 0,001 cm²
Characteristic mass : 0,001 g
Equivalent Weight : 0,000 g/eq.
Density : 0,000 g/cm3
Cycle Definition : Charge/Discharge alternance
Ei (V)              0,000
vs.                 Eoc
dE/dt               0,300
dE/dt unit          mV/s
E1 (V)              1,000
vs.                 Ref
Step percent        50
N                   10
E range min (V)     0,000
E range max (V)     5,000
I Range             Auto
I Range min         Unset
I Range max         Unset
I Range init        Unset
Bandwidth           8
E2 (V)              3,000
vs.                 Ref
nc cycles           1
Reverse Scan        1
Ef (V)              0,000
vs.                 Eoc

mode	ox/red	error	control changes	counter inc.	time/s	control/V	Ewe/V	<I>/mA	cycle number	(Q-Qo)/C	I Range	P/W
2	0	0	1	0	1,212829116239601E+005	2,2496376E+000	2,2504301E+000	-3,238022560253739E-003	1,000000000000000E+000	0,0000000E+000	42	-7,2869434E-006
2	0	0	1	0	1,216680104328746E+005	2,1341069E+000	2,1349437E+000	-5,786197619503337E-003	1,000000000000000E+000	-1,8510296E-003	42	-1,2353206E-005
2	0	0	1	0	1,220546085413969E+005	2,0181277E+000	2,0190063E+000	-8,402371810274936E-003	1,000000000000000E+000	-4,5874049E-003	42	-1,6964441E-005
2	0	0	1	0	1,224412074499684E+005	1,9021477E+000	1,9029438E+000	-1,208351225124182E-002	1,000000000000000E+000	-8,5034268E-003	41	-2,2994245E-005
2	0	0	1	0	1,228278064585394E+005	1,7861679E+000	1,7869698E+000	-1,837631310878129E-002	1,000000000000000E+000	-1,4265449E-002	41	-3,2837917E-005
2	0	0	1	0	1,232144054670615E+005	1,6701883E+000	1,6709548E+000	-3,199924131369550E-002	1,000000000000000E+000	-2,3764264E-002	41	-5,3469288E-005
2	0	0	1	0	1,236010044756234E+005	1,5542084E+000	1,5550293E+000	-6,063602803966550E-002	1,000000000000000E+000	-4,0705591E-002	41	-9,4290801E-005
2	0	0	1	0	1,239876034842039E+005	1,4382290E+000	1,4389752E+000	-1,356601705880198E-001	1,000000000000000E+000	-7,9972543E-002	40	-1,9521163E-004
2	0	0	1	0	1,243742024927264E+005	1,3222491E+000	1,3230109E+000	-1,345866900308428E-001	1,000000000000000E+000	-1,3352828E-001	40	-1,7805966E-004
2	0	0	1	0	1,247608013012779E+005	1,2062696E+000	1,2070447E+000	-1,112643740902544E-001	1,000000000000000E+000	-1,8080637E-001	40	-1,3430108E-004
2	0	0	1	0	1,251474003098629E+005	1,0902900E+000	1,0910408E+000	-9,683723551236167E-002	1,000000000000000E+000	-2,2078682E-001	40	-1,0565338E-004
2	0	0	1	0	1,255303340192655E+005	1,0245013E+000	1,0252726E+000	-7,074053606809491E-002	1,000000000000000E+000	-2,5556922E-001	40	-7,2528332E-005
2	0	0	1	0	1,259169332277945E+005	1,1404811E+000	1,1412646E+000	-3,997544892883531E-002	1,000000000000000E+000	-2,7573255E-001	41	-4,5622564E-005
2	0	0	1	0	1,263035330363769E+005	1,2564608E+000	1,2572422E+000	-2,635667214256954E-002	1,000000000000000E+000	-2,8830346E-001	41	-3,3136719E-005
2	0	0	1	0	1,266901328449302E+005	1,3724406E+000	1,3732271E+000	-1,629730550205954E-002	1,000000000000000E+000	-2,9649001E-001	41	-2,2379902E-005
2	0	0	1	0	1,270767326534525E+005	1,4884201E+000	1,4892204E+000	-3,449072280730325E-003	1,000000000000000E+000	-3,0052555E-001	42	-5,1364286E-006
2	1	0	1	0	1,274636655619534E+005	1,6044997E+000	1,6051568E+000	4,497961369093423E-002	1,000000000000000E+000	-2,9586169E-001	41	7,2199335E-005
2	1	0	1	0	1,278502653705165E+005	1,7204792E+000	1,7212275E+000	2,205344838998524E-001	1,000000000000000E+000	-2,4661690E-001	40	3,7959003E-004
2	1	0	1	0	1,282368651790377E+005	1,8364592E+000	1,8371783E+000	2,585530223558070E-001	1,000000000000000E+000	-1,4272679E-001	40	4,7500801E-004
2	1	0	1	0	1,286234649876065E+005	1,9524391E+000	1,9532148E+000	9,967369315851249E-002	1,000000000000000E+000	-7,4710108E-002	40	1,9468412E-004
2	1	0	1	0	1,290100643961813E+005	2,0684185E+000	2,0691230E+000	3,794879445881894E-002	1,000000000000000E+000	-5,0710235E-002	41	7,8520723E-005
2	1	0	1	0	1,293966644047033E+005	2,1843982E+000	2,1851707E+000	2,243000140594498E-002	1,000000000000000E+000	-3,9642420E-002	41	4,9013383E-005
2	1	0	1	0	1,297832640132611E+005	2,3003781E+000	2,3011353E+000	1,727440587705942E-002	1,000000000000000E+000	-3,2070298E-002	41	3,9750747E-005
2	1	0	1	0	1,301698635218416E+005	2,4163573E+000	2,4171300E+000	1,498457228474652E-002	1,000000000000000E+000	-2,5861762E-002	41	3,6219659E-005
2	1	0	1	0	1,305564635303677E+005	2,5323374E+000	2,5330994E+000	1,354193944486640E-002	1,000000000000000E+000	-2,0304130E-002	41	3,4303081E-005
2	1	0	1	0	1,309430635389171E+005	2,6483171E+000	2,6491218E+000	1,274857816795882E-002	1,000000000000000E+000	-1,5254398E-002	41	3,3772536E-005
2	1	0	1	0	1,313296632487602E+005	2,7642968E+000	2,7650945E+000	1,201208959285642E-002	1,000000000000000E+000	-1,0504237E-002	41	3,3214565E-005
2	1	0	1	0	1,317162630092490E+005	2,8802764E+000	2,8811116E+000	1,309058959260412E-002	1,000000000000000E+000	-5,5071777E-003	41	3,7715450E-005
2	1	0	1	0	1,321028627697350E+005	2,9962561E+000	2,9970784E+000	1,288541289886738E-002	1,000000000000000E+000	-5,3251156E-004	41	3,8618593E-005
2	1	0	1	1	1,324837955293378E+005	2,8894746E+000	2,8902941E+000	2,089884365685635E-003	1,000000000000000E+000	1,3854865E-003	42	6,0403804E-006
2	1	0	1	1	1,328703936898245E+005	2,7734947E+000	2,7743144E+000	3,496098731025716E-005	1,000000000000000E+000	1,6995678E-003	43	9,6992771E-008
2	0	0	1	1	1,332573252503662E+005	2,6574154E+000	2,6582160E+000	-1,141672058490223E-003	1,000000000000000E+000	1,4722024E-003	42	-3,0348110E-006
2	0	0	1	1	1,336439234108529E+005	2,5414360E+000	2,5422966E+000	-2,191075135395312E-003	1,000000000000000E+000	7,2463276E-004	42	-5,5703631E-006
2	0	0	1	1	1,340305219713408E+005	2,4254563E+000	2,4262762E+000	-3,183351404867807E-003	1,000000000000000E+000	-3,6031069E-004	42	-7,7236900E-006
2	0	0	1	1	1,344171207318301E+005	2,3094759E+000	2,3102970E+000	-3,818175867009915E-003	1,000000000000000E+000	-1,7351821E-003	42	-8,8211200E-006
2	0	0	1	1	1,347987201915346E+005	2,1949964E+000	2,1958477E+000	-4,961583705377168E-003	2,000000000000000E+000	-3,4232261E-003	42	-1,0894883E-005
2	0	0	1	1	1,351853183520217E+005	2,0790164E+000	2,0798554E+000	-6,813137698424621E-003	2,000000000000000E+000	-5,7074586E-003	42	-1,4170341E-005
2	0	0	1	1	1,355719167125118E+005	1,9630369E+000	1,9638193E+000	-9,729670533282594E-003	2,000000000000000E+000	-8,9244051E-003	41	-1,9107314E-005
2	0	0	1	1	1,359585158729984E+005	1,8470572E+000	1,8478391E+000	-1,424408958487444E-002	2,000000000000000E+000	-1,3517147E-002	41	-2,6320786E-005
2	0	0	1	1	1,363451150334859E+005	1,7310776E+000	1,7318641E+000	-2,371420243302036E-002	2,000000000000000E+000	-2,0658657E-002	41	-4,1069776E-005
2	0	0	1	1	1,367317141939756E+005	1,6150979E+000	1,6158986E+000	-4,216467723170192E-002	2,000000000000000E+000	-3,3070479E-002	41	-6,8133842E-005
2	0	0	1	1	1,371183133544623E+005	1,4991182E+000	1,4999105E+000	-1,093288781439328E-001	2,000000000000000E+000	-5,8850277E-002	40	-1,6398352E-004
2	0	0	1	1	1,375049125149497E+005	1,3831385E+000	1,3839185E+000	-1,395514052413493E-001	2,000000000000000E+000	-1,1068564E-001	40	-1,9312778E-004
2	0	0	1	1	1,378915114754396E+005	1,2671591E+000	1,2679348E+000	-1,200372460320924E-001	2,000000000000000E+000	-1,6166843E-001	40	-1,5219940E-004
2	0	0	1	1	1,382781106359260E+005	1,1511793E+000	1,1519579E+000	-1,015481909462994E-001	2,000000000000000E+000	-2,0426798E-001	40	-1,1697924E-004
2	0	0	1	1	1,386647096964139E+005	1,0351996E+000	1,0359735E+000	-9,214076059918264E-002	2,000000000000000E+000	-2,4144727E-001	40	-9,5455391E-005
2	0	0	1	1	1,390473104562769E+005	1,0794919E+000	1,0802726E+000	-5,055293526761423E-002	2,000000000000000E+000	-2,6933339E-001	40	-5,4610948E-005
2	0	0	1	1	1,394339103167634E+005	1,1954714E+000	1,1962315E+000	-3,219613537959787E-002	2,000000000000000E+000	-2,8488287E-001	41	-3,8514030E-005
2	0	0	1	1	1,398205102772536E+005	1,3114512E+000	1,3122480E+000	-2,122963112590864E-002	2,000000000000000E+000	-2,9507470E-001	41	-2,7858541E-005
2	0	0	1	1	1,402071100377408E+005	1,4274310E+000	1,4282045E+000	-1,104121339029962E-002	2,000000000000000E+000	-3,0135742E-001	41	-1,5769110E-005
2	1	0	1	1	1,405937099982286E+005	1,5434105E+000	1,5440704E+000	8,326301279182859E-003	2,000000000000000E+000	-3,0250663E-001	42	1,2856395E-005
2	1	0	1	1	1,409803099587178E+005	1,6593902E+000	1,6601144E+000	1,325653350534976E-001	2,000000000000000E+000	-2,8170332E-001	40	2,2007362E-004
2	1	0	1	1	1,413669099192037E+005	1,7753699E+000	1,7760761E+000	2,999380330227917E-001	2,000000000000000E+000	-1,9176053E-001	40	5,3271279E-004
2	1	0	1	1	1,417535097796940E+005	1,8913494E+000	1,8921001E+000	1,626574109760355E-001	2,000000000000000E+000	-9,6225560E-002	40	3,0776410E-004
2	1	0	1	1	1,421401095401813E+005	2,0073290E+000	2,0080917E+000	5,498644308098649E-002	2,000000000000000E+000	-5,8303475E-002	40	1,1041782E-004
2	1	0	1	1	1,425270427007228E+005	2,1234090E+000	2,1241689E+000	2,673804271025154E-002	2,000000000000000E+000	-4,3719940E-002	41	5,6796118E-005
2	1	0	1	1	1,429136424612093E+005	2,2393885E+000	2,2401278E+000	1,884130205286009E-002	2,000000000000000E+000	-3,5105951E-002	41	4,2206924E-005
2	1	0	1	1	1,433002426216975E+005	2,3553684E+000	2,3561213E+000	1,552802468144132E-002	2,000000000000000E+000	-2,8491564E-002	41	3,6585909E-005
2	1	0	1	1	1,436868427821859E+005	2,4713483E+000	2,4721527E+000	1,394629250721260E-002	2,000000000000000E+000	-2,2764819E-002	41	3,4477365E-005
2	1	0	1	1	1,440734425426726E+005	2,5873275E+000	2,5881519E+000	1,258644041121298E-002	2,000000000000000E+000	-1,7587714E-002	41	3,2575619E-005
2	1	0	1	1	1,444600422031633E+005	2,7033074E+000	2,7041152E+000	1,184386413931487E-002	2,000000000000000E+000	-1,2756400E-002	41	3,2027172E-005
2	1	0	1	1	1,448466419636497E+005	2,8192871E+000	2,8201182E+000	1,254102527791945E-002	2,000000000000000E+000	-8,1202490E-003	41	3,5367175E-005
2	1	0	1	1	1,452332421241384E+005	2,9352665E+000	2,9361038E+000	1,222794445615022E-002	2,000000000000000E+000	-3,2357203E-003	41	3,5902514E-005
2	1	0	1	0	1,456141757837385E+005	2,9504640E+000	2,9512408E+000	4,318213548418795E-003	2,000000000000000E+000	5,3086760E-004	42	1,2744088E-005
2	1	0	1	0	1,460007739442275E+005	2,8344848E+000	2,8353312E+000	7,975716542945460E-004	2,000000000000000E+000	1,3408456E-003	42	2,2613799E-006
2	0	0	1	0	1,463877051047671E+005	2,7184045E+000	2,7192943E+000	-5,321627275009797E-004	2,000000000000000E+000	1,3285077E-003	43	-1,4471070E-006
2	0	0	1	0	1,467743036652552E+005	2,6024249E+000	2,6032653E+000	-2,029015181355551E-003	2,000000000000000E+000	8,2133664E-004	42	-5,2820646E-006
2	0	0	1	0	1,471609022257449E+005	2,4864452E+000	2,4872894E+000	-2,712333915219398E-003	2,000000000000000E+000	-8,9090368E-005	42	-6,7463593E-006
2	0	0	1	0	1,475475007862310E+005	2,3704658E+000	2,3712859E+000	-3,432129009671540E-003	2,000000000000000E+000	-1,3440837E-003	42	-8,1385588E-006
2	0	0	1	0	1,479340989467176E+005	2,2544861E+000	2,2553411E+000	-4,305255483401285E-003	2,000000000000000E+000	-2,8600416E-003	42	-9,7098191E-006
2	0	0	1	0	1,479500465492142E+005	2,2496376E+000	2,2504873E+000	-4,608741108372838E-003	2,000000000000000E+000	-2,9307092E-003	42	-1,0371913E-005