File: Dati/210416_2/CV_LTO-CB_grafite nuova_15 layers__11_CV_C01.mpt
EC-Lab ASCII FILE
Nb header lines : 57

Cyclic Voltammetry

Run on channel : 1 (SN 6806)
User : Seelab
Electrode connection : standard
Ewe ctrl range : min = 0,00 V, max = 5,00 V
Ewe,I filtering : 50 kHz
Safety Limits :
	Do not start on E overload
Channel : Grounded
Acquisition started on : 04/16/2021 18:47:00
Saved on :
	File : CV_LTO-CB_grafite nuova_15 layers__11_CV_C01.mpr
	Directory : C:\Users\labsuperfici\Desktop\Biologic\Users\Prisca Viviani\210416_2\
	Host : 10.78.33.0
Device : VSP-300 (SN 0638)
Address : USB
EC-Lab for windows v11.31 (software)
Internet server v11.30 (firmware)
Command interpretor v11.31 (firmware)
Electrode material :
Initial state :
Electrolyte :
Comments :
Cable : standard
Reference electrode : SCE Saturated Calomel Electrode (0,241 V)
Electrode surface area : 0,001 cm²
Characteristic mass : 0,001 g
Equivalent Weight : 0,000 g/eq.
Density : 0,000 g/cm3
Cycle Definition : Charge/Discharge alternance
Ei (V)              0,000
vs.                 Eoc
dE/dt               1,000
dE/dt unit          mV/s
E1 (V)              1,000
vs.                 Ref
Step percent        50
N                   10
E range min (V)     0,000
E range max (V)     5,000
I Range             Auto
I Range min         Unset
I Range max         Unset
I Range init        Unset
Bandwidth           8
E2 (V)              3,000
vs.                 Ref
nc cycles           1
Reverse Scan        1
Ef (V)              0,000
vs.                 Eoc

mode	ox/red	error	control changes	counter inc.	time/s	control/V	Ewe/V	<I>/mA	cycle number	(Q-Qo)/C	I Range	P/W
2	0	0	1	0	2,276040314120143E+005	2,2496376E+000	2,2503726E+000	-1,264584530144930E-002	1,000000000000000E+000	0,0000000E+000	41	-2,8457864E-005
2	0	0	1	0	2,277195611300907E+005	2,1341071E+000	2,1348691E+000	-1,575543577345817E-002	1,000000000000000E+000	-1,5875358E-003	41	-3,3635792E-005
2	0	0	1	0	2,278355407482367E+005	2,0181274E+000	2,0189109E+000	-2,178800325671656E-002	1,000000000000000E+000	-3,7683735E-003	41	-4,3988039E-005
2	0	0	1	0	2,279515206663832E+005	1,9021477E+000	1,9029653E+000	-2,989428040952469E-002	1,000000000000000E+000	-6,7732730E-003	41	-5,6887777E-005
2	0	0	1	0	2,280675003845290E+005	1,7861681E+000	1,7869865E+000	-4,467263248316888E-002	1,000000000000000E+000	-1,1020684E-002	41	-7,9829391E-005
2	0	0	1	0	2,281834800026757E+005	1,6701883E+000	1,6710656E+000	-7,759211113935982E-002	1,000000000000000E+000	-1,7900310E-002	41	-1,2966151E-004
2	0	0	1	0	2,282994596208222E+005	1,5542086E+000	1,5549718E+000	-1,519601178720464E-001	1,000000000000000E+000	-3,0561939E-002	40	-2,3629369E-004
2	0	0	1	0	2,284154393389681E+005	1,4382290E+000	1,4390298E+000	-2,788367308905761E-001	1,000000000000000E+000	-5,7042591E-002	40	-4,0125436E-004
2	0	0	1	0	2,285314190571152E+005	1,3222494E+000	1,3230349E+000	-2,704710343404355E-001	1,000000000000000E+000	-8,9280091E-002	40	-3,5784263E-004
2	0	0	1	0	2,286473986752615E+005	1,2062696E+000	1,2070670E+000	-2,365188002670178E-001	1,000000000000000E+000	-1,1869203E-001	40	-2,8549405E-004
2	0	0	1	0	2,287633784934075E+005	1,0902900E+000	1,0910732E+000	-2,152431553607066E-001	1,000000000000000E+000	-1,4475860E-001	40	-2,3484603E-004
2	0	0	1	0	2,288782589113819E+005	1,0245013E+000	1,0252829E+000	-1,599862203238978E-001	1,000000000000000E+000	-1,6831525E-001	40	-1,6403112E-004
2	0	0	1	0	2,289942386295283E+005	1,1404810E+000	1,1412495E+000	-9,478647555780029E-002	1,000000000000000E+000	-1,8233359E-001	40	-1,0817502E-004
2	0	0	1	0	2,291102183476751E+005	1,2564607E+000	1,2572075E+000	-6,476396406878615E-002	1,000000000000000E+000	-1,9143502E-001	40	-8,1421742E-005
2	0	0	1	0	2,292261981658214E+005	1,3724405E+000	1,3732417E+000	-4,178521087165793E-002	1,000000000000000E+000	-1,9757421E-001	41	-5,7381192E-005
2	0	0	1	0	2,293421779839676E+005	1,4884204E+000	1,4892009E+000	-1,125581687723229E-002	1,000000000000000E+000	-2,0080811E-001	41	-1,6762173E-005
2	1	0	1	0	2,294581576021137E+005	1,6043998E+000	1,6050429E+000	8,464235475596116E-002	1,000000000000000E+000	-1,9826582E-001	41	1,3585461E-004
2	1	0	1	0	2,295741374202606E+005	1,7203796E+000	1,7210587E+000	4,658543495579355E-001	1,000000000000000E+000	-1,6654584E-001	40	8,0176268E-004
2	1	0	1	0	2,296901172384070E+005	1,8363591E+000	1,8370339E+000	5,497228401054448E-001	1,000000000000000E+000	-1,0191545E-001	40	1,0098595E-003
2	1	0	1	0	2,298060969565532E+005	1,9523389E+000	1,9530674E+000	2,429085511538752E-001	1,000000000000000E+000	-5,5882175E-002	40	4,7441677E-004
2	1	0	1	0	2,299220768747003E+005	2,0683186E+000	2,0690417E+000	9,902915991935013E-002	1,000000000000000E+000	-3,7895218E-002	40	2,0489546E-004
2	1	0	1	0	2,300380565928463E+005	2,1842983E+000	2,1850708E+000	6,106076217158396E-002	1,000000000000000E+000	-2,9003777E-002	40	1,3342209E-004
2	1	0	1	0	2,301541365110083E+005	2,3003783E+000	2,3010819E+000	4,650006142942531E-002	1,000000000000000E+000	-2,2829957E-002	41	1,0700045E-004
2	1	0	1	0	2,302701161291553E+005	2,4163575E+000	2,4171016E+000	4,054651976549373E-002	1,000000000000000E+000	-1,7803149E-002	41	9,8005061E-005
2	1	0	1	0	2,303860961473004E+005	2,5323372E+000	2,5331099E+000	3,610049037775809E-002	1,000000000000000E+000	-1,3334120E-002	41	9,1446513E-005
2	1	0	1	0	2,305020759654476E+005	2,6483169E+000	2,6490886E+000	3,384108882083584E-002	1,000000000000000E+000	-9,2788972E-003	41	8,9648041E-005
2	1	0	1	0	2,306180557835936E+005	2,7642968E+000	2,7651081E+000	3,136255537356492E-002	1,000000000000000E+000	-5,5059330E-003	41	8,6720858E-005
2	1	0	1	0	2,307340356017402E+005	2,8802764E+000	2,8810637E+000	3,168934507114735E-002	1,000000000000000E+000	-1,8056544E-003	41	9,1299022E-005
2	1	0	1	0	2,308500154198866E+005	2,9962561E+000	2,9970551E+000	3,169906171292045E-002	1,000000000000000E+000	1,8686058E-003	41	9,5003830E-005
2	1	0	1	1	2,309642955377675E+005	2,8894746E+000	2,8902595E+000	4,646179863543168E-003	1,000000000000000E+000	3,1900462E-003	42	1,3428666E-005
2	1	0	1	1	2,310802753559141E+005	2,7734952E+000	2,7743158E+000	-2,160802388788656E-004	1,000000000000000E+000	3,3794867E-003	42	-5,9947484E-007
2	0	0	1	1	2,311962550740596E+005	2,6575153E+000	2,6583400E+000	-3,204768339773734E-003	1,000000000000000E+000	3,1632858E-003	42	-8,5193642E-006
2	0	0	1	1	2,313122346922060E+005	2,5415354E+000	2,5424471E+000	-6,118882027407433E-003	1,000000000000000E+000	2,5562800E-003	42	-1,5556934E-005
2	0	0	1	1	2,314282143103527E+005	2,4255562E+000	2,4264410E+000	-8,796028301398029E-003	1,000000000000000E+000	1,6614886E-003	42	-2,1343043E-005
2	0	0	1	1	2,315441939284978E+005	2,3095763E+000	2,3103869E+000	-1,053877849983230E-002	1,000000000000000E+000	5,1648292E-004	41	-2,4348656E-005
2	0	0	1	1	2,316587741464269E+005	2,1949961E+000	2,1958191E+000	-1,347156220976746E-002	2,000000000000000E+000	-8,7624666E-004	41	-2,9581113E-005
2	0	0	1	1	2,317747537645726E+005	2,0790167E+000	2,0797770E+000	-1,831793795977907E-002	2,000000000000000E+000	-2,7304241E-003	41	-3,8097227E-005
2	0	0	1	1	2,318907333827196E+005	1,9630371E+000	1,9638129E+000	-2,523970192025177E-002	2,000000000000000E+000	-5,2625351E-003	41	-4,9566053E-005
2	0	0	1	1	2,320067130008657E+005	1,8470572E+000	1,8478550E+000	-3,548063794792977E-002	2,000000000000000E+000	-8,7486580E-003	41	-6,5563072E-005
2	0	0	1	1	2,321226928190123E+005	1,7310778E+000	1,7318890E+000	-5,716893120305963E-002	2,000000000000000E+000	-1,3975170E-002	41	-9,9010242E-005
2	0	0	1	1	2,322386724371578E+005	1,6150981E+000	1,6158725E+000	-1,043885471584918E-001	2,000000000000000E+000	-2,3034092E-002	40	-1,6867858E-004
2	0	0	1	1	2,323546522553046E+005	1,4991183E+000	1,4999145E+000	-2,359212419348911E-001	2,000000000000000E+000	-4,1260689E-002	40	-3,5386169E-004
2	0	0	1	1	2,324706318734502E+005	1,3831385E+000	1,3839325E+000	-2,808085397976190E-001	2,000000000000000E+000	-7,2974585E-002	40	-3,8862004E-004
2	0	0	1	1	2,325866116915972E+005	1,2671587E+000	1,2679640E+000	-2,547572298336047E-001	2,000000000000000E+000	-1,0442560E-001	40	-3,2302301E-004
2	0	0	1	1	2,327025912097443E+005	1,1511792E+000	1,1519845E+000	-2,247708176740635E-001	2,000000000000000E+000	-1,3212739E-001	40	-2,5893250E-004
2	0	0	1	1	2,328185709278905E+005	1,0351995E+000	1,0359942E+000	-2,117393008497245E-001	2,000000000000000E+000	-1,5729675E-001	40	-2,1936068E-004
2	0	0	1	1	2,329333515458489E+005	1,0794917E+000	1,0802926E+000	-1,200264183296206E-001	2,000000000000000E+000	-1,7669632E-001	40	-1,2966365E-004
2	0	0	1	1	2,330493313639949E+005	1,1954714E+000	1,1962293E+000	-7,918698874122110E-002	2,000000000000000E+000	-1,8794450E-001	40	-9,4725801E-005
2	0	0	1	1	2,331653111821422E+005	1,3114511E+000	1,3121876E+000	-5,382458060314194E-002	2,000000000000000E+000	-1,9557357E-001	40	-7,0627946E-005
2	0	0	1	1	2,332812908002883E+005	1,4274309E+000	1,4282281E+000	-2,958668035780519E-002	2,000000000000000E+000	-2,0045114E-001	41	-4,2256528E-005
2	1	0	1	1	2,333972706184350E+005	1,5434105E+000	1,5441533E+000	1,512984475439816E-002	2,000000000000000E+000	-2,0167129E-001	41	2,3362800E-005
2	1	0	1	1	2,335132504365805E+005	1,6593902E+000	1,6600915E+000	2,677348616981519E-001	2,000000000000000E+000	-1,8960631E-001	40	4,4446439E-004
2	1	0	1	1	2,336292301547271E+005	1,7753698E+000	1,7760057E+000	5,855277657759546E-001	2,000000000000000E+000	-1,3713673E-001	40	1,0399007E-003
2	1	0	1	1	2,337452098728744E+005	1,8913496E+000	1,8920257E+000	4,043636680947738E-001	2,000000000000000E+000	-7,4986860E-002	40	7,6506648E-004
2	1	0	1	1	2,338611896910197E+005	2,0073292E+000	2,0080640E+000	1,499482294928480E-001	2,000000000000000E+000	-4,4927422E-002	40	3,0110564E-004
2	1	0	1	1	2,339771697091667E+005	2,1233091E+000	2,1240706E+000	7,542129194209402E-002	2,000000000000000E+000	-3,2767978E-002	40	1,6020016E-004
2	1	0	1	1	2,340931493273131E+005	2,2392888E+000	2,2400701E+000	5,274328282985791E-002	2,000000000000000E+000	-2,5510503E-002	40	1,1814865E-004
2	1	0	1	1	2,342092292454750E+005	2,3553681E+000	2,3561084E+000	4,297758702581622E-002	2,000000000000000E+000	-2,0004386E-002	41	1,0125985E-004
2	1	0	1	1	2,343252091636211E+005	2,4713480E+000	2,4720850E+000	3,836805824276623E-002	2,000000000000000E+000	-1,5264444E-002	41	9,4849100E-005
2	1	0	1	1	2,344411887817673E+005	2,5873275E+000	2,5881112E+000	3,455006663356142E-002	2,000000000000000E+000	-1,1023406E-002	41	8,9419416E-005
2	1	0	1	1	2,345571687999144E+005	2,7033074E+000	2,7040913E+000	3,211903197106723E-002	2,000000000000000E+000	-7,0994673E-003	41	8,6852793E-005
2	1	0	1	1	2,346731484180605E+005	2,8192871E+000	2,8200746E+000	3,155686432384086E-002	2,000000000000000E+000	-3,4169063E-003	41	8,8992711E-005
2	1	0	1	1	2,347891283362065E+005	2,9352665E+000	2,9360747E+000	3,125690323507022E-002	2,000000000000000E+000	2,7133740E-004	41	9,1772607E-005
2	1	0	1	0	2,349034086540872E+005	2,9504638E+000	2,9512966E+000	1,038300229206493E-002	2,000000000000000E+000	3,0924950E-003	41	3,0643318E-005
2	1	0	1	0	2,350193882722342E+005	2,8344846E+000	2,8353274E+000	1,763730646190456E-003	2,000000000000000E+000	3,6699027E-003	42	5,0007538E-006
2	0	0	1	0	2,351353680903809E+005	2,7185047E+000	2,7193239E+000	-1,642494641082286E-003	2,000000000000000E+000	3,6339401E-003	42	-4,4664748E-006
2	0	0	1	0	2,352513477085265E+005	2,6025248E+000	2,6034207E+000	-5,318812869743478E-003	2,000000000000000E+000	3,2222231E-003	42	-1,3847108E-005
2	0	0	1	0	2,353673273266734E+005	2,4865453E+000	2,4874418E+000	-7,491403515331535E-003	2,000000000000000E+000	2,4715280E-003	42	-1,8634430E-005
2	0	0	1	0	2,354833070448195E+005	2,3705654E+000	2,3713446E+000	-9,568160273713336E-003	2,000000000000000E+000	1,4362960E-003	41	-2,2689404E-005
2	0	0	1	0	2,355992869629655E+005	2,2545860E+000	2,2554224E+000	-1,173384534306215E-002	2,000000000000000E+000	1,8502118E-004	41	-2,6464777E-005
2	0	0	0	0	2,356041712637298E+005	2,2496376E+000	2,2504683E+000	-1,246226890626451E-002	2,000000000000000E+000	1,2602242E-004	41	-2,8045941E-005