File: Dati/210416_2/CV_LTO-CB_grafite nuova_15 layers__10_CV_C01.mpt
EC-Lab ASCII FILE
Nb header lines : 57

Cyclic Voltammetry

Run on channel : 1 (SN 6806)
User : Seelab
Electrode connection : standard
Ewe ctrl range : min = 0,00 V, max = 5,00 V
Ewe,I filtering : 50 kHz
Safety Limits :
	Do not start on E overload
Channel : Grounded
Acquisition started on : 04/16/2021 18:47:00
Saved on :
	File : CV_LTO-CB_grafite nuova_15 layers__10_CV_C01.mpr
	Directory : C:\Users\labsuperfici\Desktop\Biologic\Users\Prisca Viviani\210416_2\
	Host : 10.78.33.0
Device : VSP-300 (SN 0638)
Address : USB
EC-Lab for windows v11.31 (software)
Internet server v11.30 (firmware)
Command interpretor v11.31 (firmware)
Electrode material :
Initial state :
Electrolyte :
Comments :
Cable : standard
Reference electrode : SCE Saturated Calomel Electrode (0,241 V)
Electrode surface area : 0,001 cm²
Characteristic mass : 0,001 g
Equivalent Weight : 0,000 g/eq.
Density : 0,000 g/cm3
Cycle Definition : Charge/Discharge alternance
Ei (V)              0,000
vs.                 Eoc
dE/dt               0,900
dE/dt unit          mV/s
E1 (V)              1,000
vs.                 Ref
Step percent        50
N                   10
E range min (V)     0,000
E range max (V)     5,000
I Range             Auto
I Range min         Unset
I Range max         Unset
I Range init        Unset
Bandwidth           8
E2 (V)              3,000
vs.                 Ref
nc cycles           1
Reverse Scan        1
Ef (V)              0,000
vs.                 Eoc

mode	ox/red	error	control changes	counter inc.	time/s	control/V	Ewe/V	<I>/mA	cycle number	(Q-Qo)/C	I Range	P/W
2	0	0	0	0	2,187147864211868E+005	2,2496376E+000	2,2503841E+000	-1,089842431247234E-002	1,000000000000000E+000	0,0000000E+000	41	-2,4525641E-005
2	0	0	1	0	2,188431529412731E+005	2,1341071E+000	2,1349156E+000	-1,411036021394692E-002	1,000000000000000E+000	-1,5749385E-003	41	-3,0124427E-005
2	0	0	1	0	2,189720190614332E+005	2,0181274E+000	2,0189335E+000	-1,957413679002545E-002	1,000000000000000E+000	-3,7496493E-003	41	-3,9518880E-005
2	0	0	1	0	2,191008855815986E+005	1,9021478E+000	1,9029562E+000	-2,685688744459425E-002	1,000000000000000E+000	-6,7475345E-003	41	-5,1107483E-005
2	0	0	1	0	2,192297520017596E+005	1,7861680E+000	1,7869915E+000	-4,020347626003018E-002	1,000000000000000E+000	-1,0985446E-002	41	-7,1843271E-005
2	0	0	1	0	2,193586183219231E+005	1,6701885E+000	1,6710165E+000	-7,005025319403713E-002	1,000000000000000E+000	-1,7867954E-002	41	-1,1705513E-004
2	0	0	1	0	2,194874847420854E+005	1,5542086E+000	1,5549824E+000	-1,376785850482065E-001	1,000000000000000E+000	-3,0601947E-002	40	-2,1408778E-004
2	0	0	1	0	2,196163511622478E+005	1,4382290E+000	1,4390385E+000	-2,533281931657694E-001	1,000000000000000E+000	-5,7378389E-002	40	-3,6454902E-004
2	0	0	1	0	2,197452174824107E+005	1,3222493E+000	1,3230507E+000	-2,457783931363495E-001	1,000000000000000E+000	-8,9905061E-002	40	-3,2517727E-004
2	0	0	1	0	2,198740839025727E+005	1,2062695E+000	1,2070658E+000	-2,142309637232258E-001	1,000000000000000E+000	-1,1951976E-001	40	-2,5859088E-004
2	0	0	1	0	2,200029502227367E+005	1,0902898E+000	1,0911043E+000	-1,949087490504953E-001	1,000000000000000E+000	-1,4575562E-001	40	-2,1266576E-004
2	0	0	1	0	2,201305952427074E+005	1,0245013E+000	1,0252718E+000	-1,447621584890001E-001	1,000000000000000E+000	-1,6945539E-001	40	-1,4842056E-004
2	0	0	1	0	2,202594615628705E+005	1,1404811E+000	1,1412721E+000	-8,567264743984859E-002	1,000000000000000E+000	-1,8353151E-001	40	-9,7775803E-005
2	0	0	1	0	2,203883279830330E+005	1,2564608E+000	1,2572054E+000	-5,873347948989982E-002	1,000000000000000E+000	-1,9268569E-001	40	-7,3840049E-005
2	0	0	1	0	2,205171945031951E+005	1,3724406E+000	1,3732601E+000	-3,807121975574812E-002	1,000000000000000E+000	-1,9889194E-001	41	-5,2281688E-005
2	0	0	1	0	2,206460608233582E+005	1,4884202E+000	1,4891875E+000	-1,037593388162117E-002	1,000000000000000E+000	-2,0217304E-001	41	-1,5451711E-005
2	1	0	1	0	2,207749272435200E+005	1,6043998E+000	1,6050761E+000	7,699177476275304E-002	1,000000000000000E+000	-1,9962062E-001	41	1,2357766E-004
2	1	0	1	0	2,209037938636846E+005	1,7203797E+000	1,7210881E+000	4,291582691782863E-001	1,000000000000000E+000	-1,6733567E-001	40	7,3861919E-004
2	1	0	1	0	2,210326602838449E+005	1,8363594E+000	1,8370751E+000	5,016906259095225E-001	1,000000000000000E+000	-1,0127527E-001	40	9,2164334E-004
2	1	0	1	0	2,211615267040106E+005	1,9523391E+000	1,9530575E+000	2,139816959847414E-001	1,000000000000000E+000	-5,5306256E-002	40	4,1791855E-004
2	1	0	1	0	2,212903931241706E+005	2,0683186E+000	2,0690725E+000	8,767833380598888E-002	1,000000000000000E+000	-3,7718941E-002	40	1,8141283E-004
2	1	0	1	0	2,214192598443348E+005	2,1842983E+000	2,1850705E+000	5,462968636566218E-002	1,000000000000000E+000	-2,8925704E-002	40	1,1936972E-004
2	1	0	1	0	2,215482373645136E+005	2,3003778E+000	2,3011105E+000	4,206083305702893E-002	1,000000000000000E+000	-2,2771100E-002	41	9,6786622E-005
2	1	0	1	0	2,216771037846780E+005	2,4163575E+000	2,4170902E+000	3,666991376042388E-002	1,000000000000000E+000	-1,7719829E-002	41	8,8634486E-005
2	1	0	1	0	2,218059703048394E+005	2,5323374E+000	2,5331435E+000	3,292220343965657E-002	1,000000000000000E+000	-1,3208659E-002	41	8,3396670E-005
2	1	0	1	0	2,219348368250029E+005	2,6483173E+000	2,6491156E+000	3,086183994193212E-002	1,000000000000000E+000	-9,1040339E-003	41	8,1756581E-005
2	1	0	1	0	2,220637032451647E+005	2,7642968E+000	2,7650635E+000	2,861309888397812E-002	1,000000000000000E+000	-5,2842759E-003	41	7,9117039E-005
2	1	0	1	0	2,221925696653277E+005	2,8802764E+000	2,8810651E+000	2,895205435182169E-002	1,000000000000000E+000	-1,5264843E-003	41	8,3412757E-005
2	1	0	1	0	2,223214360854906E+005	2,9962559E+000	2,9970710E+000	2,899255591716819E-002	1,000000000000000E+000	2,2065055E-003	41	8,6892753E-005
2	1	0	1	1	2,224484138053576E+005	2,8894749E+000	2,8902559E+000	4,326822128907844E-003	1,000000000000000E+000	3,5536531E-003	42	1,2505623E-005
2	1	0	1	1	2,225772800255204E+005	2,7734950E+000	2,7743199E+000	-1,350599764470338E-004	1,000000000000000E+000	3,7516325E-003	42	-3,7469957E-007
2	0	0	1	1	2,227061465456821E+005	2,6575153E+000	2,6583543E+000	-2,923117213591411E-003	1,000000000000000E+000	3,5361946E-003	42	-7,7706809E-006
2	0	0	1	1	2,228350126658462E+005	2,5415356E+000	2,5424547E+000	-5,539181636227563E-003	1,000000000000000E+000	2,9226581E-003	42	-1,4083119E-005
2	0	0	1	1	2,229638787860067E+005	2,4255559E+000	2,4264469E+000	-8,046121449267016E-003	1,000000000000000E+000	2,0216322E-003	42	-1,9523486E-005
2	0	0	1	1	2,230927452061721E+005	2,3095765E+000	2,3103886E+000	-9,569505371455109E-003	1,000000000000000E+000	8,6825073E-004	41	-2,2109276E-005
2	0	0	1	1	2,232200563260904E+005	2,1949961E+000	2,1957912E+000	-1,226620250055938E-002	2,000000000000000E+000	-5,3433789E-004	41	-2,6934020E-005
2	0	0	1	1	2,233489226462526E+005	2,0790167E+000	2,0798025E+000	-1,662460708716094E-002	2,000000000000000E+000	-2,4041876E-003	41	-3,4575900E-005
2	0	0	1	1	2,234777888664156E+005	1,9630371E+000	1,9638469E+000	-2,300010972938946E-002	2,000000000000000E+000	-4,9644229E-003	41	-4,5168694E-005
2	0	0	1	1	2,236066552865781E+005	1,8470573E+000	1,8478773E+000	-3,240515860682480E-002	2,000000000000000E+000	-8,4952563E-003	41	-5,9880756E-005
2	0	0	1	1	2,237355217067404E+005	1,7310778E+000	1,7318959E+000	-5,236320592510295E-002	2,000000000000000E+000	-1,3810988E-002	41	-9,0687623E-005
2	0	0	1	1	2,238643881269037E+005	1,6150980E+000	1,6159844E+000	-9,617111678998569E-002	2,000000000000000E+000	-2,3060182E-002	41	-1,5541103E-004
2	0	0	1	1	2,239932544470644E+005	1,4991183E+000	1,4998972E+000	-2,199140914400421E-001	2,000000000000000E+000	-4,1802458E-002	40	-3,2984855E-004
2	0	0	1	1	2,241221207672302E+005	1,3831387E+000	1,3839610E+000	-2,594771715233133E-001	2,000000000000000E+000	-7,4520521E-002	40	-3,5910629E-004
2	0	0	1	1	2,242509871873904E+005	1,2671590E+000	1,2679362E+000	-2,342403680779016E-001	2,000000000000000E+000	-1,0672063E-001	40	-2,9700185E-004
2	0	0	1	1	2,243798535075546E+005	1,1511793E+000	1,1519505E+000	-2,061135367815101E-001	2,000000000000000E+000	-1,3495371E-001	40	-2,3743258E-004
2	0	0	1	1	2,245087199277164E+005	1,0351994E+000	1,0359948E+000	-1,932400186438414E-001	2,000000000000000E+000	-1,6052616E-001	40	-2,0019565E-004
2	0	0	1	1	2,246362538476693E+005	1,0794917E+000	1,0802835E+000	-1,096643936132072E-001	2,000000000000000E+000	-1,8019736E-001	40	-1,1846864E-004
2	0	0	1	1	2,247651202678350E+005	1,1954715E+000	1,1962234E+000	-7,270659590218120E-002	2,000000000000000E+000	-1,9164822E-001	40	-8,6973327E-005
2	0	0	1	1	2,248939866879953E+005	1,3114511E+000	1,3122513E+000	-4,941419825841631E-002	2,000000000000000E+000	-1,9942863E-001	40	-6,4843851E-005
2	0	0	1	1	2,250228531081593E+005	1,4274309E+000	1,4282053E+000	-2,755699738324308E-002	2,000000000000000E+000	-2,0443766E-001	41	-3,9357048E-005
2	1	0	1	1	2,251518307283381E+005	1,5435106E+000	1,5442847E+000	1,391403529200622E-002	2,000000000000000E+000	-2,0572037E-001	41	2,1487233E-005
2	1	0	1	1	2,252806970485020E+005	1,6594903E+000	1,6601884E+000	2,476370617214864E-001	2,000000000000000E+000	-1,9330569E-001	40	4,1112417E-004
2	1	0	1	1	2,254095636686640E+005	1,7754700E+000	1,7761620E+000	5,469241656899131E-001	2,000000000000000E+000	-1,3906041E-001	40	9,7142591E-004
2	1	0	1	1	2,255384301888268E+005	1,8914497E+000	1,8921875E+000	3,709438053837975E-001	2,000000000000000E+000	-7,4942313E-002	40	7,0189522E-004
2	1	0	1	1	2,256672966089893E+005	2,0074291E+000	2,0081770E+000	1,357348998620401E-001	2,000000000000000E+000	-4,4665657E-002	40	2,7257972E-004
2	1	0	1	1	2,257961632291521E+005	2,1234093E+000	2,1241376E+000	6,856388597175266E-002	2,000000000000000E+000	-3,2412611E-002	40	1,4563913E-004
2	1	0	1	1	2,259250850493237E+005	2,2394385E+000	2,2402079E+000	4,833602808308202E-002	2,000000000000000E+000	-2,5034899E-002	40	1,0828275E-004
2	1	0	1	1	2,260540072694952E+005	2,3554685E+000	2,3562310E+000	3,971366407110533E-002	2,000000000000000E+000	-1,9397082E-002	41	9,3574563E-005
2	1	0	1	1	2,261828736896574E+005	2,4714479E+000	2,4722061E+000	3,503637536335291E-002	2,000000000000000E+000	-1,4554846E-002	41	8,6617139E-005
2	1	0	1	1	2,263117399098193E+005	2,5874274E+000	2,5882180E+000	3,111466260663581E-002	2,000000000000000E+000	-1,0282378E-002	41	8,0531529E-005
2	1	0	1	1	2,264406066299835E+005	2,7034075E+000	2,7042034E+000	2,884176071853267E-002	2,000000000000000E+000	-6,3540773E-003	41	7,7993987E-005
2	1	0	1	1	2,265694731501443E+005	2,8193870E+000	2,8201573E+000	2,839752458098180E-002	2,000000000000000E+000	-2,6791987E-003	41	8,0085483E-005
2	1	0	1	1	2,266983394703097E+005	2,9353666E+000	2,9361556E+000	2,822549316340434E-002	2,000000000000000E+000	1,0153692E-003	41	8,2874438E-005
2	1	0	1	0	2,268252063901569E+005	2,9504640E+000	2,9513090E+000	9,434233401475797E-003	2,000000000000000E+000	3,8580489E-003	41	2,7843338E-005
2	1	0	1	0	2,269540726103219E+005	2,8344843E+000	2,8352792E+000	1,607316018052859E-003	2,000000000000000E+000	4,4407859E-003	42	4,5571896E-006
2	0	0	1	0	2,270829388304829E+005	2,7185051E+000	2,7193565E+000	-1,435025703883447E-003	2,000000000000000E+000	4,4060517E-003	42	-3,9023466E-006
2	0	0	1	0	2,272118050506460E+005	2,6025252E+000	2,6033804E+000	-4,857430146816263E-003	2,000000000000000E+000	3,9939354E-003	42	-1,2645739E-005
2	0	0	1	0	2,273406713708085E+005	2,4865453E+000	2,4874399E+000	-6,767105489392453E-003	2,000000000000000E+000	3,2377094E-003	42	-1,6832768E-005
2	0	0	1	0	2,274695376909710E+005	2,3705657E+000	2,3714588E+000	-8,726214762595136E-003	2,000000000000000E+000	2,1906537E-003	42	-2,0693858E-005
2	0	0	1	0	2,275984041111344E+005	2,2545860E+000	2,2553761E+000	-1,077990798382142E-002	2,000000000000000E+000	9,1732427E-004	41	-2,4312747E-005
2	0	0	1	0	2,276038312119821E+005	2,2496376E+000	2,2504263E+000	-1,148121470633229E-002	2,000000000000000E+000	8,5724902E-004	41	-2,5837628E-005