File: Dati/201117/CV_LTO-CB_10 layer_grafite_cu_05_1mVs_06_CV_C03.mpt
EC-Lab ASCII FILE
Nb header lines : 57

Cyclic Voltammetry

Run on channel : 3 (SN 6807)
User :
Electrode connection : standard
Ewe ctrl range : min = 0,00 V, max = 5,00 V
Ewe,I filtering : 50 kHz
Safety Limits :
	Do not start on E overload
Channel : Grounded
Acquisition started on : 11/17/2020 16:29:06
Saved on :
	File : CV_LTO-CB_10 layer_grafite_cu_05_1mVs_06_CV_C03.mpr
	Directory : C:\Users\labsuperfici\Desktop\Biologic\Users\Prisca Viviani\201117\
	Host : 10.78.33.0
Device : VSP-300 (SN 0638)
Address : USB
EC-Lab for windows v11.31 (software)
Internet server v11.30 (firmware)
Command interpretor v11.31 (firmware)
Electrode material :
Initial state :
Electrolyte :
Comments :
Cable : standard
Reference electrode : SCE Saturated Calomel Electrode (0,241 V)
Electrode surface area : 0,001 cm²
Characteristic mass : 0,001 g
Equivalent Weight : 0,000 g/eq.
Density : 0,000 g/cm3
Cycle Definition : Charge/Discharge alternance
Ei (V)              0,000
vs.                 Eoc
dE/dt               0,900
dE/dt unit          mV/s
E1 (V)              1,000
vs.                 Ref
Step percent        50
N                   10
E range min (V)     0,000
E range max (V)     5,000
I Range             Auto
I Range min         Unset
I Range max         Unset
I Range init        Unset
Bandwidth           8
E2 (V)              2,700
vs.                 Ref
nc cycles           1
Reverse Scan        1
Ef (V)              0,000
vs.                 Eoc

mode	ox/red	error	control changes	counter inc.	time/s	control/V	Ewe/V	<I>/mA	cycle number	(Q-Qo)/C	I Range	P/W
2	1	0	0	0	4,835669477842527E+004	2,5277619E+000	2,5272036E+000	1,222439017146826E-002	1,000000000000000E+000	0,0000000E+000	41	3,0893523E-005
2	1	0	1	0	4,846614997862908E+004	2,4292514E+000	2,4287357E+000	4,152702080971682E-003	1,000000000000000E+000	7,7635638E-004	42	1,0085816E-005
2	0	0	1	0	4,857621617883409E+004	2,3301916E+000	2,3296824E+000	-1,007096238233800E-003	1,000000000000000E+000	9,4200234E-004	42	-2,3462144E-006
2	0	0	1	0	4,868617147903895E+004	2,2312319E+000	2,2308290E+000	-6,534089328701228E-003	1,000000000000000E+000	5,3364737E-004	42	-1,4576436E-005
2	0	0	1	0	4,879612637924368E+004	2,1322725E+000	2,1318016E+000	-1,392060260910957E-002	1,000000000000000E+000	-5,7833007E-004	41	-2,9675963E-005
2	0	0	1	0	4,890608157944854E+004	2,0333128E+000	2,0328269E+000	-2,437387800961288E-002	1,000000000000000E+000	-2,6563667E-003	41	-4,9547874E-005
2	0	0	1	0	4,901603677965328E+004	1,9343536E+000	1,9338746E+000	-3,972569495919150E-002	1,000000000000000E+000	-6,1324299E-003	41	-7,6824515E-005
2	0	0	1	0	4,912599197985813E+004	1,8353938E+000	1,8349656E+000	-6,356470404641335E-002	1,000000000000000E+000	-1,1723477E-002	41	-1,1663904E-004
2	0	0	1	0	4,923594718006300E+004	1,7364340E+000	1,7360446E+000	-1,010677635031598E-001	1,000000000000000E+000	-2,0633403E-002	41	-1,7545815E-004
2	0	0	1	0	4,934590238026771E+004	1,6374743E+000	1,6369793E+000	-1,565084117343285E-001	1,000000000000000E+000	-3,4638636E-002	40	-2,5620105E-004
2	0	0	1	0	4,945585758047248E+004	1,5385146E+000	1,5380121E+000	-2,344520670415440E-001	1,000000000000000E+000	-5,5856906E-002	40	-3,6059011E-004
2	0	0	1	0	4,956581268067742E+004	1,4395552E+000	1,4390948E+000	-3,646400865817314E-001	1,000000000000000E+000	-8,8094644E-002	40	-5,2475167E-004
2	0	0	1	0	4,967576788088225E+004	1,3405955E+000	1,3401518E+000	-5,717294303823826E-001	1,000000000000000E+000	-1,3935198E-001	40	-7,6620420E-004
2	0	0	1	0	4,978572298108702E+004	1,2416359E+000	1,2412412E+000	-7,025957247279875E-001	1,000000000000000E+000	-2,1087375E-001	40	-8,7209075E-004
2	0	0	1	0	4,989567818129179E+004	1,1426764E+000	1,1422509E+000	-6,795967515975949E-001	1,000000000000000E+000	-2,8804657E-001	40	-7,7627000E-004
2	0	0	1	0	5,000563338149659E+004	1,0437167E+000	1,0432589E+000	-5,844770641344317E-001	1,000000000000000E+000	-3,5770249E-001	40	-6,0976093E-004
2	0	0	1	0	5,011370108169806E+004	1,0535127E+000	1,0530300E+000	-3,482008389811222E-001	1,000000000000000E+000	-4,1076541E-001	40	-3,6666595E-004
2	0	0	1	0	5,022365628190272E+004	1,1524723E+000	1,1519486E+000	-1,856020104067477E-001	1,000000000000000E+000	-4,3891510E-001	40	-2,1380397E-004
2	0	0	1	0	5,033361148210755E+004	1,2514319E+000	1,2509001E+000	-1,019835695858309E-001	1,000000000000000E+000	-4,5431021E-001	40	-1,2757126E-004
2	0	0	1	0	5,044356678231229E+004	1,3503916E+000	1,3499063E+000	-4,693543388926880E-002	1,000000000000000E+000	-4,6233907E-001	41	-6,3358442E-005
2	0	0	1	0	5,055363318251731E+004	1,4494511E+000	1,4489213E+000	6,338783603001327E-005	1,000000000000000E+000	-4,6491790E-001	43	9,1843987E-008
2	1	0	1	0	5,066358828272216E+004	1,5484107E+000	1,5477775E+000	5,665183934706353E-002	1,000000000000000E+000	-4,6196052E-001	41	8,7684442E-005
2	1	0	1	0	5,077354358292691E+004	1,6473705E+000	1,6467874E+000	1,685873993812406E-001	1,000000000000000E+000	-4,5072198E-001	40	2,7762761E-004
2	1	0	1	0	5,088349878313171E+004	1,7463300E+000	1,7457025E+000	4,057290267095143E-001	1,000000000000000E+000	-4,1961992E-001	40	7,0828217E-004
2	1	0	1	0	5,099345408333663E+004	1,8452895E+000	1,8446542E+000	6,642260383396810E-001	1,000000000000000E+000	-3,6061645E-001	40	1,2252673E-003
2	1	0	1	0	5,110340928354132E+004	1,9442492E+000	1,9436158E+000	8,488104871871598E-001	1,000000000000000E+000	-2,7609760E-001	40	1,6497615E-003
2	1	0	1	0	5,121336468374624E+004	2,0432086E+000	2,0425940E+000	8,180878068848472E-001	1,000000000000000E+000	-1,8183394E-001	40	1,6710212E-003
2	1	0	1	0	5,132331988395104E+004	2,1421683E+000	2,1415641E+000	5,211473283288726E-001	1,000000000000000E+000	-1,0671593E-001	40	1,1160704E-003
2	1	0	1	0	5,143327508415584E+004	2,2411280E+000	2,2405622E+000	2,647287086881427E-001	1,000000000000000E+000	-6,5082915E-002	40	5,9314113E-004
2	1	0	1	0	5,154323028436064E+004	2,3400877E+000	2,3395782E+000	1,514753843847044E-001	1,000000000000000E+000	-4,3115575E-002	40	3,5438850E-004
2	1	0	1	0	5,165318568456545E+004	2,4390473E+000	2,4385571E+000	1,020440698358033E-001	1,000000000000000E+000	-2,9514572E-002	40	2,4884028E-004
2	1	0	1	0	5,176314078477021E+004	2,5380068E+000	2,5375376E+000	7,704206622973087E-002	1,000000000000000E+000	-1,9801294E-002	40	1,9549714E-004
2	1	0	1	0	5,187309598497499E+004	2,6369667E+000	2,6364849E+000	6,373772984928539E-002	1,000000000000000E+000	-1,2130984E-002	40	1,6804357E-004
2	1	0	1	1	5,198149658517697E+004	2,6654551E+000	2,6649170E+000	3,560828830685928E-002	1,000000000000000E+000	-6,2134480E-003	41	9,4893134E-005
2	1	0	1	1	5,209145178538177E+004	2,5664954E+000	2,5659692E+000	1,648904302495630E-002	1,000000000000000E+000	-3,5320839E-003	41	4,2310377E-005
2	1	0	1	1	5,219962998558325E+004	2,4691348E+000	2,4686086E+000	7,753404673148091E-003	2,000000000000000E+000	-2,2723470E-003	41	1,9140121E-005
2	1	0	1	1	5,230958508578810E+004	2,3701751E+000	2,3696227E+000	1,809465009060071E-003	2,000000000000000E+000	-1,7692922E-003	42	4,2877496E-006
2	0	0	1	1	5,241965118599299E+004	2,2711160E+000	2,2706563E+000	-3,811714737728022E-003	2,000000000000000E+000	-1,8832051E-003	42	-8,6550945E-006
2	0	0	1	1	5,252960638619791E+004	2,1721563E+000	2,1716454E+000	-1,074335875860857E-002	2,000000000000000E+000	-2,6754492E-003	41	-2,3330766E-005
2	0	0	1	1	5,263956128640275E+004	2,0731969E+000	2,0727057E+000	-2,026790643398668E-002	2,000000000000000E+000	-4,3594898E-003	41	-4,2009407E-005
2	0	0	1	1	5,274951658660750E+004	1,9742371E+000	1,9737468E+000	-3,407666516696756E-002	2,000000000000000E+000	-7,3073190E-003	41	-6,7258705E-005
2	0	0	1	1	5,285947178681230E+004	1,8752774E+000	1,8748271E+000	-5,502128593044955E-002	2,000000000000000E+000	-1,2129975E-002	41	-1,0315540E-004
2	0	0	1	1	5,296942698701704E+004	1,7763177E+000	1,7758950E+000	-8,779370781719809E-002	2,000000000000000E+000	-1,9857259E-002	41	-1,5591241E-004
2	0	0	1	1	5,307938218722190E+004	1,6773580E+000	1,6768254E+000	-1,377462105711404E-001	2,000000000000000E+000	-3,2098565E-002	40	-2,3097635E-004
2	0	0	1	1	5,318933738742676E+004	1,5783985E+000	1,5778751E+000	-2,078070557972382E-001	2,000000000000000E+000	-5,0889920E-002	40	-3,2789359E-004
2	0	0	1	1	5,329929248763149E+004	1,4794389E+000	1,4789478E+000	-3,177537599629376E-001	2,000000000000000E+000	-7,9242565E-002	40	-4,6994121E-004
2	0	0	1	1	5,340924768783641E+004	1,3804791E+000	1,3800056E+000	-5,144706122415048E-001	2,000000000000000E+000	-1,2413900E-001	40	-7,0997234E-004
2	0	0	1	1	5,351920288804120E+004	1,2815195E+000	1,2810823E+000	-6,968150888460052E-001	2,000000000000000E+000	-1,9192778E-001	40	-8,9267746E-004
2	0	0	1	1	5,362915798824595E+004	1,1825600E+000	1,1821685E+000	-7,139927016320131E-001	2,000000000000000E+000	-2,7101845E-001	40	-8,4405969E-004
2	0	0	1	1	5,373911318845079E+004	1,0836004E+000	1,0831262E+000	-6,231192631141074E-001	2,000000000000000E+000	-3,4498307E-001	40	-6,7491678E-004
2	0	0	1	1	5,384706978865189E+004	1,0135291E+000	1,0130372E+000	-4,694373775925822E-001	2,000000000000000E+000	-4,0646917E-001	40	-4,7555752E-004
2	0	0	1	1	5,395702488885669E+004	1,1124886E+000	1,1119766E+000	-2,310001667239268E-001	2,000000000000000E+000	-4,4272915E-001	40	-2,5686680E-004
2	0	0	1	1	5,406697998906148E+004	1,2114482E+000	1,2109101E+000	-1,255080276793041E-001	2,000000000000000E+000	-4,6170732E-001	40	-1,5197894E-004
2	0	0	1	1	5,417693538926635E+004	1,3104080E+000	1,3098893E+000	-6,257771708642659E-002	2,000000000000000E+000	-4,7180662E-001	40	-8,1969883E-005
2	0	0	1	1	5,428689048947107E+004	1,4093673E+000	1,4088432E+000	-1,492975102947333E-002	2,000000000000000E+000	-4,7599933E-001	41	-2,1033678E-005
2	1	0	1	1	5,439695688967609E+004	1,5084270E+000	1,5078276E+000	3,571570304901792E-002	2,000000000000000E+000	-4,7494894E-001	41	5,3853124E-005
2	1	0	1	1	5,450691198988096E+004	1,6073867E+000	1,6068199E+000	1,126968346007990E-001	2,000000000000000E+000	-4,6722940E-001	40	1,8108351E-004
2	1	0	1	1	5,461686739008567E+004	1,7063464E+000	1,7057480E+000	3,195937791225338E-001	2,000000000000000E+000	-4,4478443E-001	40	5,4514641E-004
2	1	0	1	1	5,472682259029045E+004	1,8053058E+000	1,8047063E+000	5,884417830716373E-001	2,000000000000000E+000	-3,9499268E-001	40	1,0619647E-003
2	1	0	1	1	5,483677779049528E+004	1,9042655E+000	1,9036376E+000	8,352169518683867E-001	2,000000000000000E+000	-3,1597331E-001	40	1,5899504E-003
2	1	0	1	1	5,494673319070006E+004	2,0032251E+000	2,0026081E+000	8,931643878047950E-001	2,000000000000000E+000	-2,1833244E-001	40	1,7886582E-003
2	1	0	1	1	5,505668839090498E+004	2,1021848E+000	2,1015770E+000	6,464463946904022E-001	2,000000000000000E+000	-1,3118298E-001	40	1,3585569E-003
2	1	0	1	1	5,516664379110979E+004	2,2011447E+000	2,2005739E+000	3,338195130270063E-001	2,000000000000000E+000	-7,8547023E-002	40	7,3459453E-004
2	1	0	1	1	5,527659899131453E+004	2,3001041E+000	2,2995746E+000	1,795850208950207E-001	2,000000000000000E+000	-5,1521905E-002	40	4,1296915E-004
2	1	0	1	1	5,538655409151939E+004	2,3990636E+000	2,3985574E+000	1,141884489708754E-001	2,000000000000000E+000	-3,5844222E-002	40	2,7388756E-004
2	1	0	1	1	5,549650939172413E+004	2,4980233E+000	2,4975259E+000	8,318336240817759E-002	2,000000000000000E+000	-2,5168797E-002	40	2,0775260E-004
2	1	0	1	1	5,560646469192900E+004	2,5969827E+000	2,5964763E+000	6,640459675868410E-002	2,000000000000000E+000	-1,7037345E-002	40	1,7241796E-004
2	1	0	1	1	5,571641979213385E+004	2,6959424E+000	2,6954558E+000	5,706340059104084E-002	2,000000000000000E+000	-1,0276152E-002	40	1,5381187E-004
2	1	0	1	0	5,582493139233592E+004	2,6063793E+000	2,6058495E+000	2,115779827126246E-002	2,000000000000000E+000	-6,6642519E-003	41	5,5134038E-005
2	1	0	0	0	5,591222899249848E+004	2,5277619E+000	2,5271959E+000	1,172776299021089E-002	2,000000000000000E+000	-5,2693123E-003	41	2,9638355E-005