File: Dati/201117/CV_LTO-CB_10 layer_grafite_cu_05_1mVs_05_CV_C03.mpt
EC-Lab ASCII FILE
Nb header lines : 57

Cyclic Voltammetry

Run on channel : 3 (SN 6807)
User :
Electrode connection : standard
Ewe ctrl range : min = 0,00 V, max = 5,00 V
Ewe,I filtering : 50 kHz
Safety Limits :
	Do not start on E overload
Channel : Grounded
Acquisition started on : 11/17/2020 16:29:06
Saved on :
	File : CV_LTO-CB_10 layer_grafite_cu_05_1mVs_05_CV_C03.mpr
	Directory : C:\Users\labsuperfici\Desktop\Biologic\Users\Prisca Viviani\201117\
	Host : 10.78.33.0
Device : VSP-300 (SN 0638)
Address : USB
EC-Lab for windows v11.31 (software)
Internet server v11.30 (firmware)
Command interpretor v11.31 (firmware)
Electrode material :
Initial state :
Electrolyte :
Comments :
Cable : standard
Reference electrode : SCE Saturated Calomel Electrode (0,241 V)
Electrode surface area : 0,001 cm²
Characteristic mass : 0,001 g
Equivalent Weight : 0,000 g/eq.
Density : 0,000 g/cm3
Cycle Definition : Charge/Discharge alternance
Ei (V)              0,000
vs.                 Eoc
dE/dt               0,800
dE/dt unit          mV/s
E1 (V)              1,000
vs.                 Ref
Step percent        50
N                   10
E range min (V)     0,000
E range max (V)     5,000
I Range             Auto
I Range min         Unset
I Range max         Unset
I Range init        Unset
Bandwidth           8
E2 (V)              2,700
vs.                 Ref
nc cycles           1
Reverse Scan        1
Ef (V)              0,000
vs.                 Eoc

mode	ox/red	error	control changes	counter inc.	time/s	control/V	Ewe/V	<I>/mA	cycle number	(Q-Qo)/C	I Range	P/W
2	1	0	1	0	3,985650916259235E+004	2,5277619E+000	2,5271194E+000	9,693278931081295E-003	1,000000000000000E+000	0,0000000E+000	42	2,4496074E-005
2	1	0	1	0	3,997964636282180E+004	2,4292514E+000	2,4287062E+000	2,911702075420426E-003	1,000000000000000E+000	6,6785811E-004	42	7,0716687E-006
2	0	0	1	0	4,010347076305235E+004	2,3301919E+000	2,3296838E+000	-1,544259095580869E-003	1,000000000000000E+000	7,4342766E-004	42	-3,5976354E-006
2	0	0	1	0	4,022717036328278E+004	2,2312319E+000	2,2308035E+000	-6,552736454791805E-003	1,000000000000000E+000	2,4635586E-004	42	-1,4617867E-005
2	0	0	1	0	4,035086956351320E+004	2,1322727E+000	2,1317756E+000	-1,331320098431393E-002	1,000000000000000E+000	-9,6947642E-004	41	-2,8380757E-005
2	0	0	1	0	4,047456896374363E+004	2,0333128E+000	2,0328240E+000	-2,297795160526983E-002	1,000000000000000E+000	-3,1848501E-003	41	-4,6710131E-005
2	0	0	1	0	4,059826866397401E+004	1,9343535E+000	1,9338586E+000	-3,743588621803395E-002	1,000000000000000E+000	-6,8682698E-003	41	-7,2395713E-005
2	0	0	1	0	4,072196826420445E+004	1,8353937E+000	1,8349535E+000	-6,010309709415074E-002	1,000000000000000E+000	-1,2803301E-002	41	-1,1028639E-004
2	0	0	1	0	4,084566776443487E+004	1,7364340E+000	1,7360055E+000	-9,615187974024220E-002	1,000000000000000E+000	-2,2314237E-002	41	-1,6692020E-004
2	0	0	1	0	4,096936746466529E+004	1,6374744E+000	1,6369641E+000	-1,496732412950321E-001	1,000000000000000E+000	-3,7351895E-002	40	-2,4500972E-004
2	0	0	1	0	4,109306686489572E+004	1,5385147E+000	1,5379939E+000	-2,256100451423384E-001	1,000000000000000E+000	-6,0245853E-002	40	-3,4698687E-004
2	0	0	1	0	4,121676646512601E+004	1,4395553E+000	1,4391053E+000	-3,577334906980900E-001	1,000000000000000E+000	-9,5468000E-002	40	-5,1481614E-004
2	0	0	1	0	4,134046586535638E+004	1,3405956E+000	1,3401097E+000	-5,592792838531420E-001	1,000000000000000E+000	-1,5220127E-001	40	-7,4949558E-004
2	0	0	1	0	4,146416536558687E+004	1,2416359E+000	1,2411813E+000	-6,643973619635246E-001	1,000000000000000E+000	-2,2962984E-001	40	-8,2463754E-004
2	0	0	1	0	4,158786496581743E+004	1,1426764E+000	1,1422369E+000	-6,174099187972075E-001	1,000000000000000E+000	-3,1007361E-001	40	-7,0522842E-004
2	0	0	1	0	4,171156446604780E+004	1,0437167E+000	1,0432411E+000	-5,188599061810546E-001	1,000000000000000E+000	-3,8033560E-001	40	-5,4129597E-004
2	0	0	1	0	4,183314046627410E+004	1,0535126E+000	1,0530053E+000	-3,004038814158303E-001	1,000000000000000E+000	-4,3286186E-001	40	-3,1632688E-004
2	0	0	1	0	4,195684006650450E+004	1,1524723E+000	1,1519235E+000	-1,550580289713801E-001	1,000000000000000E+000	-4,5978323E-001	40	-1,7861500E-004
2	0	0	1	0	4,208053986673494E+004	1,2514322E+000	1,2508838E+000	-8,179821804240836E-002	1,000000000000000E+000	-4,7400695E-001	40	-1,0232007E-004
2	0	0	1	0	4,220423936696537E+004	1,3503916E+000	1,3498596E+000	-3,403229869159075E-002	1,000000000000000E+000	-4,8100847E-001	41	-4,5938825E-005
2	1	0	1	0	4,232806406719598E+004	1,4494512E+000	1,4488356E+000	6,827345048384774E-003	1,000000000000000E+000	-4,8269179E-001	42	9,8917008E-006
2	1	0	1	0	4,245176356742647E+004	1,5484109E+000	1,5477656E+000	5,757516558156062E-002	1,000000000000000E+000	-4,7887731E-001	41	8,9112858E-005
2	1	0	1	0	4,257546316765680E+004	1,6473705E+000	1,6468059E+000	1,653736679377453E-001	1,000000000000000E+000	-4,6645373E-001	40	2,7233834E-004
2	1	0	1	0	4,269916286788718E+004	1,7463299E+000	1,7457459E+000	3,957529021457642E-001	1,000000000000000E+000	-4,3220460E-001	40	6,9088402E-004
2	1	0	1	0	4,282286246811762E+004	1,8452896E+000	1,8446507E+000	6,358775043986880E-001	1,000000000000000E+000	-3,6804926E-001	40	1,1729719E-003
2	1	0	1	0	4,294656226834805E+004	1,9442494E+000	1,9436064E+000	7,801782269671875E-001	1,000000000000000E+000	-2,7882692E-001	40	1,5163594E-003
2	1	0	1	0	4,307026186857848E+004	2,0432086E+000	2,0425797E+000	7,178546051774006E-001	1,000000000000000E+000	-1,8360238E-001	40	1,4662752E-003
2	1	0	1	0	4,319396156880888E+004	2,1421683E+000	2,1415775E+000	4,488273317675446E-001	1,000000000000000E+000	-1,1047444E-001	40	9,6119853E-004
2	1	0	1	0	4,331766116903932E+004	2,2411282E+000	2,2405577E+000	2,352226300208580E-001	1,000000000000000E+000	-6,9598384E-002	40	5,2702986E-004
2	1	0	1	0	4,344136076926976E+004	2,3400879E+000	2,3395393E+000	1,364632637795640E-001	1,000000000000000E+000	-4,7455996E-002	40	3,1926116E-004
2	1	0	1	0	4,356506036950019E+004	2,4390473E+000	2,4385221E+000	9,224159850014502E-002	1,000000000000000E+000	-3,3629499E-002	40	2,2493317E-004
2	1	0	1	0	4,368875996973051E+004	2,5380070E+000	2,5375202E+000	6,962301799105708E-002	1,000000000000000E+000	-2,3753896E-002	40	1,7666981E-004
2	1	0	1	0	4,381245956996095E+004	2,6369665E+000	2,6364596E+000	5,769239233517109E-002	1,000000000000000E+000	-1,5953641E-002	40	1,5210366E-004
2	1	0	1	1	4,393441047018810E+004	2,6654551E+000	2,6649208E+000	3,208075542790434E-002	1,000000000000000E+000	-9,9285096E-003	41	8,5492669E-005
2	1	0	1	1	4,405811007041851E+004	2,5664952E+000	2,5659850E+000	1,457934339535226E-002	1,000000000000000E+000	-7,2381138E-003	41	3,7410377E-005
2	1	0	1	1	4,417981037064525E+004	2,4691350E+000	2,4686222E+000	6,782450448364577E-003	2,000000000000000E+000	-5,9925839E-003	41	1,6743308E-005
2	1	0	1	1	4,430350977087568E+004	2,3701754E+000	2,3696377E+000	1,489583673303325E-003	2,000000000000000E+000	-5,5040778E-003	42	3,5297737E-006
2	0	0	1	1	4,442733417110622E+004	2,2711158E+000	2,2706528E+000	-3,525065622274989E-003	2,000000000000000E+000	-5,6341873E-003	42	-8,0042000E-006
2	0	0	1	1	4,455103357133665E+004	2,1721563E+000	2,1717744E+000	-9,685099403087649E-003	2,000000000000000E+000	-6,4435136E-003	42	-2,1033851E-005
2	0	0	1	1	4,467473307156703E+004	2,0731964E+000	2,0726919E+000	-1,817699351042057E-002	2,000000000000000E+000	-8,1476020E-003	41	-3,7675309E-005
2	0	0	1	1	4,479843247179745E+004	1,9742370E+000	1,9737525E+000	-3,047723279294456E-002	2,000000000000000E+000	-1,1116746E-002	41	-6,0154514E-005
2	0	0	1	1	4,492213207202789E+004	1,8752774E+000	1,8748122E+000	-4,927745534809569E-002	2,000000000000000E+000	-1,5971918E-002	41	-9,2385977E-005
2	0	0	1	1	4,504583157225820E+004	1,7763178E+000	1,7758977E+000	-7,890644802807012E-002	2,000000000000000E+000	-2,3770066E-002	41	-1,4012978E-004
2	0	0	1	1	4,516953117248862E+004	1,6773583E+000	1,6768384E+000	-1,245476100426592E-001	2,000000000000000E+000	-3,6189172E-002	40	-2,0884622E-004
2	0	0	1	1	4,529323077271905E+004	1,5783986E+000	1,5778638E+000	-1,882926738494426E-001	2,000000000000000E+000	-5,5326868E-002	40	-2,9710020E-004
2	0	0	1	1	4,541693027294945E+004	1,4794389E+000	1,4789178E+000	-2,892085822057400E-001	2,000000000000000E+000	-8,4285162E-002	40	-4,2771574E-004
2	0	0	1	1	4,554062987317989E+004	1,3804792E+000	1,3799980E+000	-4,715144552793635E-001	2,000000000000000E+000	-1,3046613E-001	40	-6,5068901E-004
2	0	0	1	1	4,566432937341032E+004	1,2815197E+000	1,2810678E+000	-6,356827550274793E-001	2,000000000000000E+000	-2,0023455E-001	40	-8,1435277E-004
2	0	0	1	1	4,578802887364069E+004	1,1825600E+000	1,1821448E+000	-6,455627711123966E-001	2,000000000000000E+000	-2,8109127E-001	40	-7,6314865E-004
2	0	0	1	1	4,591172827387112E+004	1,0836004E+000	1,0831269E+000	-5,571661597854046E-001	2,000000000000000E+000	-3,5590878E-001	40	-6,0348166E-004
2	0	0	1	1	4,603317967409731E+004	1,0135289E+000	1,0130583E+000	-4,164231359680688E-001	2,000000000000000E+000	-4,1759005E-001	40	-4,2186092E-004
2	0	0	1	1	4,615687917432774E+004	1,1124886E+000	1,1119850E+000	-2,015484803818479E-001	2,000000000000000E+000	-4,5347735E-001	40	-2,2411888E-004
2	0	0	1	1	4,628057867455814E+004	1,2114482E+000	1,2109121E+000	-1,081168304030282E-001	2,000000000000000E+000	-4,7200301E-001	40	-1,3091997E-004
2	0	0	1	1	4,640427847478853E+004	1,3104080E+000	1,3098487E+000	-5,279129447407610E-002	2,000000000000000E+000	-4,8171103E-001	40	-6,9148606E-005
2	0	0	1	1	4,652797807501897E+004	1,4093673E+000	1,4088506E+000	-1,088631840822479E-002	2,000000000000000E+000	-4,8557955E-001	41	-1,5337195E-005
2	1	0	1	1	4,665180267524975E+004	1,5084271E+000	1,5078419E+000	3,398082928442869E-002	2,000000000000000E+000	-4,8425028E-001	41	5,1237719E-005
2	1	0	1	1	4,677550217548013E+004	1,6073867E+000	1,6068399E+000	1,032113410119946E-001	2,000000000000000E+000	-4,7623128E-001	40	1,6584410E-004
2	1	0	1	1	4,689920187571039E+004	1,7063464E+000	1,7057658E+000	2,937158773154973E-001	2,000000000000000E+000	-4,5303106E-001	40	5,0101051E-004
2	1	0	1	1	4,702290157594084E+004	1,8053060E+000	1,8047054E+000	5,387283436119974E-001	2,000000000000000E+000	-4,0162027E-001	40	9,7224594E-004
2	1	0	1	1	4,714660117617127E+004	1,9042658E+000	1,9036345E+000	7,397315753455231E-001	2,000000000000000E+000	-3,2148346E-001	40	1,4081786E-003
2	1	0	1	1	4,727030087640169E+004	2,0032248E+000	2,0026019E+000	7,777237185307566E-001	2,000000000000000E+000	-2,2535618E-001	40	1,5574710E-003
2	1	0	1	1	4,739400057663210E+004	2,1021848E+000	2,1015928E+000	5,717424872440118E-001	2,000000000000000E+000	-1,3952340E-001	40	1,2015699E-003
2	1	0	1	1	4,751770017686253E+004	2,2011442E+000	2,2005897E+000	3,023357111079156E-001	2,000000000000000E+000	-8,6569071E-002	40	6,6531682E-004
2	1	0	1	1	4,764139987709280E+004	2,3001039E+000	2,2995906E+000	1,634139537672521E-001	2,000000000000000E+000	-5,8967236E-002	40	3,7578520E-004
2	1	0	1	1	4,776509937732329E+004	2,3990636E+000	2,3985679E+000	1,044913241450368E-001	2,000000000000000E+000	-4,2867690E-002	40	2,5062953E-004
2	1	0	1	1	4,788879897755373E+004	2,4980233E+000	2,4975185E+000	7,601271670478671E-002	2,000000000000000E+000	-3,1886749E-002	40	1,8984317E-004
2	1	0	1	1	4,801249877778417E+004	2,5969830E+000	2,5964935E+000	6,072529539433935E-002	2,000000000000000E+000	-2,3523496E-002	40	1,5767284E-004
2	1	0	1	1	4,813619827801455E+004	2,6959426E+000	2,6954572E+000	5,236846220506870E-002	2,000000000000000E+000	-1,6555954E-002	40	1,4115695E-004
2	1	0	1	0	4,825814897824160E+004	2,6064789E+000	2,6059499E+000	1,962214379751903E-002	2,000000000000000E+000	-1,2791040E-002	41	5,1134324E-005
2	1	0	0	0	4,835648357842478E+004	2,5277619E+000	2,5272455E+000	1,090785772674432E-002	2,000000000000000E+000	-1,1330746E-002	41	2,7566835E-005