File: Dati/201117/CV_LTO-CB_10 layer_grafite_cu_05_1mVs_04_CV_C03.mpt
EC-Lab ASCII FILE
Nb header lines : 57

Cyclic Voltammetry

Run on channel : 3 (SN 6807)
User :
Electrode connection : standard
Ewe ctrl range : min = 0,00 V, max = 5,00 V
Ewe,I filtering : 50 kHz
Safety Limits :
	Do not start on E overload
Channel : Grounded
Acquisition started on : 11/17/2020 16:29:06
Saved on :
	File : CV_LTO-CB_10 layer_grafite_cu_05_1mVs_04_CV_C03.mpr
	Directory : C:\Users\labsuperfici\Desktop\Biologic\Users\Prisca Viviani\201117\
	Host : 10.78.33.0
Device : VSP-300 (SN 0638)
Address : USB
EC-Lab for windows v11.31 (software)
Internet server v11.30 (firmware)
Command interpretor v11.31 (firmware)
Electrode material :
Initial state :
Electrolyte :
Comments :
Cable : standard
Reference electrode : SCE Saturated Calomel Electrode (0,241 V)
Electrode surface area : 0,001 cm²
Characteristic mass : 0,001 g
Equivalent Weight : 0,000 g/eq.
Density : 0,000 g/cm3
Cycle Definition : Charge/Discharge alternance
Ei (V)              0,000
vs.                 Eoc
dE/dt               0,700
dE/dt unit          mV/s
E1 (V)              1,000
vs.                 Ref
Step percent        50
N                   10
E range min (V)     0,000
E range max (V)     5,000
I Range             Auto
I Range min         Unset
I Range max         Unset
I Range init        Unset
Bandwidth           8
E2 (V)              2,700
vs.                 Ref
nc cycles           1
Reverse Scan        1
Ef (V)              0,000
vs.                 Eoc

mode	ox/red	error	control changes	counter inc.	time/s	control/V	Ewe/V	<I>/mA	cycle number	(Q-Qo)/C	I Range	P/W
2	1	0	1	0	3,014203018118202E+004	2,5277619E+000	2,5271270E+000	8,196605369448662E-003	1,000000000000000E+000	0,0000000E+000	42	2,0713864E-005
2	1	0	1	0	3,028275837947818E+004	2,4292512E+000	2,4287448E+000	2,157106743086645E-003	1,000000000000000E+000	6,1017484E-004	42	5,2390619E-006
2	0	0	1	0	3,042427187776487E+004	2,3301914E+000	2,3297193E+000	-1,778953684389640E-003	1,000000000000000E+000	6,2619575E-004	42	-4,1444628E-006
2	0	0	1	0	3,056564267605324E+004	2,2312317E+000	2,2308037E+000	-6,234194035705215E-003	1,000000000000000E+000	6,2093764E-005	42	-1,3907264E-005
2	0	0	1	0	3,070701337434165E+004	2,1322725E+000	2,1317685E+000	-1,228543500887458E-002	1,000000000000000E+000	-1,2348598E-003	41	-2,6189702E-005
2	0	0	1	0	3,084838407263003E+004	2,0333128E+000	2,0328271E+000	-2,100041875992783E-002	1,000000000000000E+000	-3,5592124E-003	41	-4,2690222E-005
2	0	0	1	0	3,098975497091841E+004	1,9343531E+000	1,9338677E+000	-3,422052307376788E-002	1,000000000000000E+000	-7,4068992E-003	41	-6,6177963E-005
2	0	0	1	0	3,113112596920691E+004	1,8353934E+000	1,8349290E+000	-5,516087213909499E-002	1,000000000000000E+000	-1,3618994E-002	41	-1,0121628E-004
2	0	0	1	0	3,127249676749524E+004	1,7364339E+000	1,7360200E+000	-8,892468581982693E-002	1,000000000000000E+000	-2,3636471E-002	41	-1,5437503E-004
2	0	0	1	0	3,141386776578362E+004	1,6374742E+000	1,6369535E+000	-1,392445858697555E-001	1,000000000000000E+000	-3,9587509E-002	40	-2,2793691E-004
2	0	0	1	0	3,155523846407203E+004	1,5385149E+000	1,5379833E+000	-2,124840634645027E-001	1,000000000000000E+000	-6,4047098E-002	40	-3,2679693E-004
2	0	0	0	0	3,169660936236041E+004	1,4395550E+000	1,4390422E+000	-3,474964516635020E-001	1,000000000000000E+000	-1,0256716E-001	40	-5,0006207E-004
2	0	0	1	0	3,183798026064882E+004	1,3405954E+000	1,3401164E+000	-5,233332035563230E-001	1,000000000000000E+000	-1,6473083E-001	40	-7,0132740E-004
2	0	0	1	0	3,197935105893720E+004	1,2416359E+000	1,2411600E+000	-5,859213460407762E-001	1,000000000000000E+000	-2,4493249E-001	40	-7,2722218E-004
2	0	0	1	0	3,212072195722559E+004	1,1426761E+000	1,1421939E+000	-5,330953401014860E-001	1,000000000000000E+000	-3,2486144E-001	40	-6,0889823E-004
2	0	0	1	0	3,226209275551408E+004	1,0437165E+000	1,0432098E+000	-4,523342820198346E-001	1,000000000000000E+000	-3,9445037E-001	40	-4,7187955E-004
2	0	0	1	0	3,240103675383178E+004	1,0535125E+000	1,0530162E+000	-2,592292947750163E-001	1,000000000000000E+000	-4,4677970E-001	40	-2,7297265E-004
2	0	0	0	0	3,254240775212017E+004	1,1524721E+000	1,1519001E+000	-1,310098065469090E-001	1,000000000000000E+000	-4,7308502E-001	40	-1,5091020E-004
2	0	0	1	0	3,268377875040856E+004	1,2514318E+000	1,2508713E+000	-6,723277524920368E-002	1,000000000000000E+000	-4,8667619E-001	40	-8,4099549E-005
2	0	0	1	0	3,282514964949549E+004	1,3503915E+000	1,3498527E+000	-2,565394567528512E-002	1,000000000000000E+000	-4,9307555E-001	41	-3,4629047E-005
2	1	0	1	0	3,296666354975908E+004	1,4494511E+000	1,4489176E+000	1,050502169967760E-002	1,000000000000000E+000	-4,9416348E-001	41	1,5220911E-005
2	1	0	1	0	3,310803445002239E+004	1,5484108E+000	1,5477529E+000	5,630448094765152E-002	1,000000000000000E+000	-4,8963445E-001	41	8,7145418E-005
2	1	0	0	0	3,324940535028570E+004	1,6473702E+000	1,6468128E+000	1,657555299385431E-001	1,000000000000000E+000	-4,7572899E-001	40	2,7296832E-004
2	1	0	1	0	3,339077635054907E+004	1,7463299E+000	1,7457139E+000	3,904391445334783E-001	1,000000000000000E+000	-4,3673688E-001	40	6,8159506E-004
2	1	0	1	0	3,353214735081233E+004	1,8452893E+000	1,8446618E+000	5,991989853361330E-001	1,000000000000000E+000	-3,6595929E-001	40	1,1053195E-003
2	1	0	1	0	3,367351835107559E+004	1,9442490E+000	1,9436231E+000	6,814405824082188E-001	1,000000000000000E+000	-2,7332571E-001	40	1,3244636E-003
2	1	0	1	0	3,381488945133903E+004	2,0432091E+000	2,0425885E+000	5,706290762348942E-001	1,000000000000000E+000	-1,8254647E-001	40	1,1655603E-003
2	1	0	1	0	3,395626065160229E+004	2,1421688E+000	2,1415751E+000	3,562879586746284E-001	1,000000000000000E+000	-1,1713796E-001	40	7,6301739E-004
2	1	0	1	0	3,409763145186566E+004	2,2411280E+000	2,2405620E+000	2,172450774048906E-001	1,000000000000000E+000	-7,7655651E-002	40	4,8675106E-004
2	1	0	1	0	3,423900245212892E+004	2,3400874E+000	2,3395984E+000	1,344707726413448E-001	1,000000000000000E+000	-5,3176403E-002	40	3,1460761E-004
2	1	0	1	0	3,438037355239224E+004	2,4390473E+000	2,4385445E+000	8,692324376855431E-002	1,000000000000000E+000	-3,7919387E-002	40	2,1196619E-004
2	1	0	1	0	3,452174445265555E+004	2,5380070E+000	2,5375364E+000	6,352644191217283E-002	1,000000000000000E+000	-2,7465638E-002	40	1,6120066E-004
2	1	0	1	0	3,466311535291898E+004	2,6369667E+000	2,6364625E+000	5,196868847440206E-002	1,000000000000000E+000	-1,9387236E-002	40	1,3701350E-004
2	1	0	1	1	3,480248745317850E+004	2,6654551E+000	2,6649020E+000	2,839037305989234E-002	1,000000000000000E+000	-1,3204292E-002	41	7,5657561E-005
2	1	0	1	1	3,494385845344188E+004	2,5664957E+000	2,5659742E+000	1,239042918876830E-002	1,000000000000000E+000	-1,0532241E-002	41	3,1793523E-005
2	1	0	1	1	3,508294445370085E+004	2,4691350E+000	2,4686091E+000	5,570891723555016E-003	2,000000000000000E+000	-9,3391528E-003	41	1,3752354E-005
2	1	0	1	1	3,522431485396426E+004	2,3701756E+000	2,3696523E+000	9,574734927473919E-004	2,000000000000000E+000	-8,9000342E-003	42	2,2688791E-006
2	0	0	1	1	3,536568585422751E+004	2,2712157E+000	2,2707827E+000	-3,508537837854084E-003	2,000000000000000E+000	-9,0854540E-003	42	-7,9671272E-006
2	0	0	1	1	3,550705665449100E+004	2,1722560E+000	2,1718807E+000	-9,072758155355368E-003	2,000000000000000E+000	-9,9663436E-003	42	-1,9704948E-005
2	0	0	1	1	3,564842725475412E+004	2,0732965E+000	2,0728092E+000	-1,678980273812641E-002	2,000000000000000E+000	-1,1773761E-002	41	-3,4802059E-005
2	0	0	1	1	3,578979825501773E+004	1,9743371E+000	1,9738584E+000	-2,810401190982414E-002	2,000000000000000E+000	-1,4905572E-002	41	-5,5473338E-005
2	0	0	1	1	3,593116895528091E+004	1,8753772E+000	1,8749226E+000	-4,567000554700329E-002	2,000000000000000E+000	-2,0040197E-002	41	-8,5627726E-005
2	0	0	1	1	3,607253995554429E+004	1,7764174E+000	1,7759944E+000	-7,392415222235316E-002	2,000000000000000E+000	-2,8349793E-002	41	-1,3128888E-004
2	0	0	1	1	3,621391075580753E+004	1,6774580E+000	1,6769427E+000	-1,178075394130476E-001	2,000000000000000E+000	-4,1712150E-002	40	-1,9755650E-004
2	0	0	0	1	3,635528175607091E+004	1,5784982E+000	1,5779796E+000	-1,794925601635537E-001	2,000000000000000E+000	-6,2471054E-002	40	-2,8323560E-004
2	0	0	1	1	3,649665245633409E+004	1,4795390E+000	1,4790530E+000	-2,827138488039669E-001	2,000000000000000E+000	-9,4396397E-002	40	-4,1814876E-004
2	0	0	0	1	3,663802335659752E+004	1,3805791E+000	1,3801090E+000	-4,677426140224892E-001	2,000000000000000E+000	-1,4674246E-001	40	-6,4553577E-004
2	0	0	1	1	3,677939425686077E+004	1,2816195E+000	1,2811648E+000	-6,015549294979623E-001	2,000000000000000E+000	-2,2404771E-001	40	-7,7069097E-004
2	0	0	1	1	3,692076515712414E+004	1,1826599E+000	1,1822048E+000	-5,795317968063580E-001	2,000000000000000E+000	-3,0911443E-001	40	-6,8512530E-004
2	0	0	1	1	3,706213585738739E+004	1,0837004E+000	1,0832115E+000	-4,868870746995766E-001	2,000000000000000E+000	-3,8466930E-001	40	-5,2740169E-004
2	0	0	1	1	3,720108005764615E+004	1,0135288E+000	1,0130465E+000	-3,597527330275296E-001	2,000000000000000E+000	-4,4616079E-001	40	-3,6444626E-004
2	0	0	0	1	3,734245095790946E+004	1,1124885E+000	1,1119432E+000	-1,672152233067106E-001	2,000000000000000E+000	-4,8089692E-001	40	-1,8593384E-004
2	0	0	1	1	3,748382175817294E+004	1,2114481E+000	1,2109045E+000	-8,611261176455820E-002	2,000000000000000E+000	-4,9816012E-001	40	-1,0427415E-004
2	0	0	1	1	3,762519285843614E+004	1,3104079E+000	1,3099000E+000	-3,852115682950819E-002	2,000000000000000E+000	-5,0672954E-001	41	-5,0458864E-005
2	0	0	1	1	3,776656385869975E+004	1,4093676E+000	1,4088343E+000	-2,451042836934064E-003	2,000000000000000E+000	-5,0956559E-001	42	-3,4531133E-006
2	1	0	1	1	3,790793475896283E+004	1,5083270E+000	1,5077211E+000	3,740840174545945E-002	2,000000000000000E+000	-5,0721502E-001	41	5,6401437E-005
2	1	0	0	1	3,804930575922620E+004	1,6072866E+000	1,6067330E+000	1,027641868257669E-001	2,000000000000000E+000	-4,9789435E-001	41	1,6511460E-004
2	1	0	1	1	3,819067675948958E+004	1,7062461E+000	1,7056844E+000	2,985032899825359E-001	2,000000000000000E+000	-4,7095364E-001	40	5,0915242E-004
2	1	0	0	1	3,833204775975295E+004	1,8052057E+000	1,8045623E+000	5,344773753523864E-001	2,000000000000000E+000	-4,1191289E-001	40	9,6449774E-004
2	1	0	1	1	3,847341876001609E+004	1,9041655E+000	1,9035208E+000	6,983746895732802E-001	2,000000000000000E+000	-3,2313153E-001	40	1,3293708E-003
2	1	0	1	1	3,861478986027953E+004	2,0031254E+000	2,0024843E+000	6,784708715209806E-001	2,000000000000000E+000	-2,2318429E-001	40	1,3586272E-003
2	1	0	1	1	3,875616086054291E+004	2,1020851E+000	2,1015215E+000	4,618204419033214E-001	2,000000000000000E+000	-1,4101285E-001	40	9,7052561E-004
2	1	0	1	1	3,889753186080605E+004	2,2010443E+000	2,2004840E+000	2,524611691257368E-001	2,000000000000000E+000	-9,1838099E-002	40	5,5553677E-004
2	1	0	1	1	3,903890286106942E+004	2,3000040E+000	2,2994533E+000	1,431050616795119E-001	2,000000000000000E+000	-6,4771824E-002	40	3,2906339E-004
2	1	0	1	1	3,918027386133280E+004	2,3989635E+000	2,3984659E+000	9,136213333780815E-002	2,000000000000000E+000	-4,8658498E-002	40	2,1912895E-004
2	1	0	1	1	3,932164476159611E+004	2,4979231E+000	2,4974301E+000	6,631561866375191E-002	2,000000000000000E+000	-3,7688993E-002	40	1,6561862E-004
2	1	0	1	1	3,946301576185948E+004	2,5968828E+000	2,5963788E+000	5,328870363527494E-002	2,000000000000000E+000	-2,9333325E-002	40	1,3835766E-004
2	1	0	1	1	3,960452946212306E+004	2,6959426E+000	2,6954155E+000	4,616590120218211E-002	2,000000000000000E+000	-2,2316998E-002	41	1,2443628E-004
2	1	0	1	0	3,974390166238265E+004	2,6064794E+000	2,6059461E+000	1,636972454407096E-002	2,000000000000000E+000	-1,8622100E-002	41	4,2658619E-005
2	1	0	1	0	3,985628416259191E+004	2,5277619E+000	2,5272379E+000	8,731572721362782E-003	2,000000000000000E+000	-1,7255584E-002	41	2,2066761E-005