File: Dati/201117/CV_LTO-CB_10 layer_grafite_cu_05_1mVs_07_CV_C03.mpt
EC-Lab ASCII FILE
Nb header lines : 57

Cyclic Voltammetry

Run on channel : 3 (SN 6807)
User :
Electrode connection : standard
Ewe ctrl range : min = 0,00 V, max = 5,00 V
Ewe,I filtering : 50 kHz
Safety Limits :
	Do not start on E overload
Channel : Grounded
Acquisition started on : 11/17/2020 16:29:06
Saved on :
	File : CV_LTO-CB_10 layer_grafite_cu_05_1mVs_07_CV_C03.mpr
	Directory : C:\Users\labsuperfici\Desktop\Biologic\Users\Prisca Viviani\201117\
	Host : 10.78.33.0
Device : VSP-300 (SN 0638)
Address : USB
EC-Lab for windows v11.31 (software)
Internet server v11.30 (firmware)
Command interpretor v11.31 (firmware)
Electrode material :
Initial state :
Electrolyte :
Comments :
Cable : standard
Reference electrode : SCE Saturated Calomel Electrode (0,241 V)
Electrode surface area : 0,001 cm²
Characteristic mass : 0,001 g
Equivalent Weight : 0,000 g/eq.
Density : 0,000 g/cm3
Cycle Definition : Charge/Discharge alternance
Ei (V)              0,000
vs.                 Eoc
dE/dt               1,000
dE/dt unit          mV/s
E1 (V)              1,000
vs.                 Ref
Step percent        50
N                   10
E range min (V)     0,000
E range max (V)     5,000
I Range             Auto
I Range min         Unset
I Range max         Unset
I Range init        Unset
Bandwidth           8
E2 (V)              2,700
vs.                 Ref
nc cycles           1
Reverse Scan        1
Ef (V)              0,000
vs.                 Eoc

mode	ox/red	error	control changes	counter inc.	time/s	control/V	Ewe/V	<I>/mA	cycle number	(Q-Qo)/C	I Range	P/W
2	1	0	0	0	5,591242919249891E+004	2,5277619E+000	2,5271845E+000	1,338818203657866E-002	1,000000000000000E+000	0,0000000E+000	41	3,3834407E-005
2	1	0	1	0	5,601103889268255E+004	2,4291513E+000	2,4286201E+000	4,302520344890214E-003	1,000000000000000E+000	7,4448111E-004	42	1,0449187E-005
2	0	0	1	0	5,610999849286699E+004	2,3301916E+000	2,3296771E+000	-1,310665485295077E-003	1,000000000000000E+000	8,8175508E-004	42	-3,0534275E-006
2	0	0	1	0	5,620895809305122E+004	2,2312317E+000	2,2308350E+000	-7,609397452047431E-003	1,000000000000000E+000	4,4385434E-004	42	-1,6975309E-005
2	0	0	1	0	5,630791769323547E+004	2,1322727E+000	2,1317801E+000	-1,603707280122872E-002	1,000000000000000E+000	-7,1561977E-004	41	-3,4187513E-005
2	0	0	1	0	5,640687729341991E+004	2,0333130E+000	2,0328386E+000	-2,810425389008941E-002	1,000000000000000E+000	-2,8745332E-003	41	-5,7131412E-005
2	0	0	1	0	5,650583699360420E+004	1,9343535E+000	1,9338683E+000	-4,599326675117865E-002	1,000000000000000E+000	-6,4905938E-003	41	-8,8944922E-005
2	0	0	1	0	5,660479659378855E+004	1,8353937E+000	1,8349520E+000	-7,354335089573993E-002	1,000000000000000E+000	-1,2312436E-002	41	-1,3494852E-004
2	0	0	1	0	5,670375619397289E+004	1,7364342E+000	1,7359375E+000	-1,168867191419267E-001	1,000000000000000E+000	-2,1589434E-002	40	-2,0290804E-004
2	0	0	1	0	5,680271589415718E+004	1,6374743E+000	1,6369710E+000	-1,802321005518053E-001	1,000000000000000E+000	-3,6133830E-002	40	-2,9503473E-004
2	0	0	1	0	5,690167559434145E+004	1,5385147E+000	1,5380017E+000	-2,701821892997529E-001	1,000000000000000E+000	-5,8125630E-002	40	-4,1554065E-004
2	0	0	1	0	5,700063509452587E+004	1,4395549E+000	1,4390744E+000	-4,217958334939986E-001	1,000000000000000E+000	-9,1623984E-002	40	-6,0699560E-004
2	0	0	1	0	5,709959479471017E+004	1,3405954E+000	1,3401364E+000	-6,487441941665288E-001	1,000000000000000E+000	-1,4460398E-001	40	-8,6940569E-004
2	0	0	1	0	5,719855429489451E+004	1,2416359E+000	1,2412131E+000	-7,822318453274573E-001	1,000000000000000E+000	-2,1690664E-001	40	-9,7091642E-004
2	0	0	1	0	5,729751399507886E+004	1,1426762E+000	1,1422666E+000	-7,506763264360288E-001	1,000000000000000E+000	-2,9378599E-001	40	-8,5747254E-004
2	0	0	1	0	5,739647349526314E+004	1,0437165E+000	1,0432763E+000	-6,458274858807496E-001	1,000000000000000E+000	-3,6303428E-001	40	-6,7377649E-004
2	0	0	1	0	5,749373459544426E+004	1,0535126E+000	1,0530220E+000	-3,856583267847982E-001	1,000000000000000E+000	-4,1582525E-001	40	-4,0610670E-004
2	0	0	1	0	5,759269429562869E+004	1,1524724E+000	1,1519434E+000	-2,059778514700579E-001	1,000000000000000E+000	-4,4392398E-001	40	-2,3727484E-004
2	0	0	1	0	5,769165399581287E+004	1,2514319E+000	1,2508761E+000	-1,125671477643717E-001	1,000000000000000E+000	-4,5926982E-001	40	-1,4080755E-004
2	0	0	1	0	5,779061359599730E+004	1,3503914E+000	1,3498188E+000	-5,138174042076271E-002	1,000000000000000E+000	-4,6721113E-001	40	-6,9356043E-005
2	1	0	1	0	5,788957319618156E+004	1,4493511E+000	1,4487867E+000	1,266380134921849E-003	1,000000000000000E+000	-4,6968347E-001	42	1,8347148E-006
2	1	0	1	0	5,798853299636580E+004	1,5483109E+000	1,5476680E+000	6,505159266449356E-002	1,000000000000000E+000	-4,6656647E-001	41	1,0067827E-004
2	1	0	1	0	5,808749259655020E+004	1,6472704E+000	1,6466745E+000	1,923939017926353E-001	1,000000000000000E+000	-4,5501971E-001	40	3,1681012E-004
2	1	0	1	0	5,818645239673462E+004	1,7462299E+000	1,7455804E+000	4,616416176491036E-001	1,000000000000000E+000	-4,2311364E-001	40	8,0583256E-004
2	1	0	1	0	5,828541199691896E+004	1,8451897E+000	1,8445408E+000	7,656662134665808E-001	1,000000000000000E+000	-3,6254799E-001	40	1,4123026E-003
2	1	0	1	0	5,838437159710325E+004	1,9441493E+000	1,9434539E+000	9,953805248733394E-001	1,000000000000000E+000	-2,7353683E-001	40	1,9344762E-003
2	1	0	1	0	5,848333129728754E+004	2,0431087E+000	2,0424504E+000	9,087354024114820E-001	1,000000000000000E+000	-1,7625970E-001	40	1,8560470E-003
2	1	0	1	0	5,858229129747185E+004	2,1420684E+000	2,1414351E+000	5,556700802852876E-001	1,000000000000000E+000	-1,0298207E-001	40	1,1899314E-003
2	1	0	1	0	5,868125089765619E+004	2,2410278E+000	2,2404678E+000	2,865169430462275E-001	1,000000000000000E+000	-6,2884904E-002	40	6,4193195E-004
2	1	0	1	0	5,878021059784052E+004	2,3399875E+000	2,3394513E+000	1,643614462091004E-001	1,000000000000000E+000	-4,1406255E-002	40	3,8451559E-004
2	1	0	1	0	5,887917029802490E+004	2,4389474E+000	2,4384041E+000	1,100559436120006E-001	1,000000000000000E+000	-2,8163001E-002	40	2,6836086E-004
2	1	0	1	0	5,897813019820920E+004	2,5379071E+000	2,5374103E+000	8,293596246853507E-002	1,000000000000000E+000	-1,8737424E-002	40	2,1044257E-004
2	1	0	1	0	5,907708979839351E+004	2,6368666E+000	2,6363516E+000	6,838384827204780E-002	1,000000000000000E+000	-1,1321231E-002	40	1,8028387E-004
2	1	0	1	1	5,917475019857541E+004	2,6654549E+000	2,6649141E+000	3,762279164598364E-002	1,000000000000000E+000	-5,6280326E-003	41	1,0026151E-004
2	1	0	1	1	5,927370979875978E+004	2,5664957E+000	2,5659361E+000	1,739342292891752E-002	1,000000000000000E+000	-3,0823802E-003	41	4,4630411E-005
2	1	0	1	1	5,937107019894115E+004	2,4691353E+000	2,4686143E+000	8,093533326327271E-003	2,000000000000000E+000	-1,8905888E-003	41	1,9979812E-005
2	1	0	1	1	5,947012979912566E+004	2,3700757E+000	2,3695450E+000	1,620457539631654E-003	2,000000000000000E+000	-1,4324641E-003	42	3,8397470E-006
2	0	0	1	1	5,956908939930995E+004	2,2711158E+000	2,2706606E+000	-4,596801994175420E-003	2,000000000000000E+000	-1,5830537E-003	42	-1,0437778E-005
2	0	0	1	1	5,966804909949435E+004	2,1721563E+000	2,1716492E+000	-1,247168020162923E-002	2,000000000000000E+000	-2,4190473E-003	41	-2,7084114E-005
2	0	0	1	1	5,976700849967857E+004	2,0731966E+000	2,0727019E+000	-2,344369272482927E-002	2,000000000000000E+000	-4,1739997E-003	41	-4,8591788E-005
2	0	0	1	1	5,986596829986290E+004	1,9742370E+000	1,9737558E+000	-3,928453160781670E-002	2,000000000000000E+000	-7,2371424E-003	41	-7,7538076E-005
2	0	0	1	1	5,996492790004727E+004	1,8752773E+000	1,8748283E+000	-6,334115488915659E-002	2,000000000000000E+000	-1,2241331E-002	41	-1,1875379E-004
2	0	0	1	1	6,006388760023162E+004	1,7763177E+000	1,7758675E+000	-1,011147541953898E-001	2,000000000000000E+000	-2,0249756E-002	41	-1,7956640E-004
2	0	0	1	1	6,016284720041591E+004	1,6773579E+000	1,6768383E+000	-1,584405500688746E-001	2,000000000000000E+000	-3,2938655E-002	40	-2,6567918E-004
2	0	0	1	1	6,026180680060026E+004	1,5783983E+000	1,5778769E+000	-2,389345751199953E-001	2,000000000000000E+000	-5,2384321E-002	40	-3,7700936E-004
2	0	0	1	1	6,036076640078455E+004	1,4794389E+000	1,4789450E+000	-3,674013461398102E-001	2,000000000000000E+000	-8,1813022E-002	40	-5,4336642E-004
2	0	0	1	1	6,045972600096889E+004	1,3804792E+000	1,3800292E+000	-5,850172376427611E-001	2,000000000000000E+000	-1,2834227E-001	40	-8,0734090E-004
2	0	0	1	1	6,055868560115329E+004	1,2815194E+000	1,2810885E+000	-7,625034842915603E-001	2,000000000000000E+000	-1,9592308E-001	40	-9,7683445E-004
2	0	0	1	1	6,065764520133758E+004	1,1825601E+000	1,1821789E+000	-7,845768923488852E-001	2,000000000000000E+000	-2,7393126E-001	40	-9,2751021E-004
2	0	0	1	1	6,075660480152187E+004	1,0836004E+000	1,0831388E+000	-6,898669295693942E-001	2,000000000000000E+000	-3,4736231E-001	40	-7,4722164E-004
2	0	0	1	1	6,085376600170284E+004	1,0135291E+000	1,0130433E+000	-5,219912511415746E-001	2,000000000000000E+000	-4,0876037E-001	40	-5,2879972E-004
2	0	0	1	1	6,095272560188716E+004	1,1124886E+000	1,1119581E+000	-2,589797327091183E-001	2,000000000000000E+000	-4,4519505E-001	40	-2,8797463E-004
2	0	0	1	1	6,105168520207144E+004	1,2114482E+000	1,2108945E+000	-1,412906544248731E-001	2,000000000000000E+000	-4,6438509E-001	40	-1,7108808E-004
2	0	0	1	1	6,115064490225585E+004	1,3104079E+000	1,3098496E+000	-7,068649485799483E-002	2,000000000000000E+000	-4,7463310E-001	40	-9,2588678E-005
2	0	0	1	1	6,124960460244014E+004	1,4093674E+000	1,4088241E+000	-1,705673173299312E-002	2,000000000000000E+000	-4,7890693E-001	41	-2,4029934E-005
2	1	0	1	1	6,134856420262437E+004	1,5083270E+000	1,5077029E+000	3,967282627187041E-002	2,000000000000000E+000	-4,7787705E-001	41	5,9814836E-005
2	1	0	1	1	6,144752390280878E+004	1,6072867E+000	1,6067069E+000	1,247191184907692E-001	2,000000000000000E+000	-4,7017050E-001	40	2,0038706E-004
2	1	0	1	1	6,154648360299307E+004	1,7062464E+000	1,7056136E+000	3,500494172712108E-001	2,000000000000000E+000	-4,4797030E-001	40	5,9704907E-004
2	1	0	1	1	6,164544330317737E+004	1,8052058E+000	1,8045777E+000	6,505174433252545E-001	2,000000000000000E+000	-3,9879113E-001	40	1,1739093E-003
2	1	0	1	1	6,174440300336177E+004	1,9041656E+000	1,9034878E+000	9,602912044859993E-001	2,000000000000000E+000	-3,1812367E-001	40	1,8279026E-003
2	1	0	1	1	6,184336280354613E+004	2,0031252E+000	2,0025082E+000	9,881251831139242E-001	2,000000000000000E+000	-2,1865450E-001	40	1,9787287E-003
2	1	0	1	1	6,194232240373048E+004	2,1020849E+000	2,1014483E+000	7,072005277745361E-001	2,000000000000000E+000	-1,3305545E-001	40	1,4861453E-003
2	1	0	1	1	6,204128210391477E+004	2,2010443E+000	2,2004535E+000	3,838721080295837E-001	2,000000000000000E+000	-8,0067202E-002	40	8,4469275E-004
2	1	0	1	1	6,214024190409904E+004	2,3000040E+000	2,2994442E+000	2,097821758374159E-001	2,000000000000000E+000	-5,1783960E-002	40	4,8238240E-004
2	1	0	1	1	6,223920170428348E+004	2,3989637E+000	2,3984506E+000	1,305384915071330E-001	2,000000000000000E+000	-3,5453808E-002	40	3,1309013E-004
2	1	0	1	1	6,233816120446776E+004	2,4979231E+000	2,4974039E+000	9,331581849475423E-002	2,000000000000000E+000	-2,4580423E-002	40	2,3304729E-004
2	1	0	1	1	6,243712110465209E+004	2,5968831E+000	2,5963559E+000	7,346766817409600E-002	2,000000000000000E+000	-1,6419599E-002	40	1,9074822E-004
2	1	0	1	1	6,253608080483635E+004	2,6958427E+000	2,6953571E+000	6,261418640018246E-002	2,000000000000000E+000	-9,7162956E-003	40	1,6876760E-004
2	1	0	1	0	6,263374110501830E+004	2,6064792E+000	2,6059399E+000	2,329088838206100E-002	2,000000000000000E+000	-6,1483406E-003	41	6,0694656E-005
2	1	0	1	0	6,271240900516487E+004	2,5277619E+000	2,5272264E+000	1,284775013104078E-002	2,000000000000000E+000	-4,7648409E-003	41	3,2469175E-005