File: Dati/201117/CV_LTO-CB_10 layer_grafite_cu_05_1mVs_03_CV_C03.mpt
EC-Lab ASCII FILE
Nb header lines : 57

Cyclic Voltammetry

Run on channel : 3 (SN 6807)
User :
Electrode connection : standard
Ewe ctrl range : min = 0,00 V, max = 5,00 V
Ewe,I filtering : 50 kHz
Safety Limits :
	Do not start on E overload
Channel : Grounded
Acquisition started on : 11/17/2020 16:29:06
Saved on :
	File : CV_LTO-CB_10 layer_grafite_cu_05_1mVs_03_CV_C03.mpr
	Directory : C:\Users\labsuperfici\Desktop\Biologic\Users\Prisca Viviani\201117\
	Host : 10.78.33.0
Device : VSP-300 (SN 0638)
Address : USB
EC-Lab for windows v11.31 (software)
Internet server v11.30 (firmware)
Command interpretor v11.31 (firmware)
Electrode material :
Initial state :
Electrolyte :
Comments :
Cable : standard
Reference electrode : SCE Saturated Calomel Electrode (0,241 V)
Electrode surface area : 0,001 cm²
Characteristic mass : 0,001 g
Equivalent Weight : 0,000 g/eq.
Density : 0,000 g/cm3
Cycle Definition : Charge/Discharge alternance
Ei (V)              0,000
vs.                 Eoc
dE/dt               0,600
dE/dt unit          mV/s
E1 (V)              1,000
vs.                 Ref
Step percent        50
N                   10
E range min (V)     0,000
E range max (V)     5,000
I Range             Auto
I Range min         Unset
I Range max         Unset
I Range init        Unset
Bandwidth           8
E2 (V)              2,700
vs.                 Ref
nc cycles           1
Reverse Scan        1
Ef (V)              0,000
vs.                 Eoc

mode	ox/red	error	control changes	counter inc.	time/s	control/V	Ewe/V	<I>/mA	cycle number	(Q-Qo)/C	I Range	P/W
2	1	0	0	0	1,880848191839946E+004	2,5277619E+000	2,5271537E+000	5,604332778602839E-003	1,000000000000000E+000	0,0000000E+000	42	1,4163011E-005
2	1	0	1	0	1,897266471641161E+004	2,4292512E+000	2,4287274E+000	7,554591084710724E-004	1,000000000000000E+000	3,9757747E-004	42	1,8348043E-006
2	0	0	1	0	1,913759751441480E+004	2,3302917E+000	2,3298044E+000	-2,400938169121717E-003	1,000000000000000E+000	2,4728262E-004	42	-5,5937162E-006
2	0	0	1	0	1,930253031241801E+004	2,2313321E+000	2,2308905E+000	-6,167143539408376E-003	1,000000000000000E+000	-4,6138625E-004	42	-1,3758222E-005
2	0	0	1	0	1,946746311042106E+004	2,1323721E+000	2,1318617E+000	-1,144975006155075E-002	1,000000000000000E+000	-1,9031242E-003	41	-2,4409284E-005
2	0	0	1	0	1,963239590842417E+004	2,0334127E+000	2,0329325E+000	-1,923086293034899E-002	1,000000000000000E+000	-4,4041448E-003	41	-3,9095048E-005
2	0	0	1	0	1,979732870642724E+004	1,9344532E+000	1,9339597E+000	-3,135608969337433E-002	1,000000000000000E+000	-8,5182171E-003	41	-6,0641414E-005
2	0	0	1	0	1,996226140443044E+004	1,8354937E+000	1,8350289E+000	-5,115590124563718E-002	1,000000000000000E+000	-1,5201864E-002	41	-9,3872557E-005
2	0	0	1	0	2,012719420243357E+004	1,7365339E+000	1,7360834E+000	-8,412912957923635E-002	1,000000000000000E+000	-2,6159579E-002	41	-1,4605519E-004
2	0	0	1	0	2,029212700043670E+004	1,6375742E+000	1,6370277E+000	-1,335162651811724E-001	1,000000000000000E+000	-4,3902803E-002	40	-2,1856982E-004
2	0	0	1	0	2,045705979843991E+004	1,5386146E+000	1,5380872E+000	-2,088225707789912E-001	1,000000000000000E+000	-7,1551986E-002	40	-3,2118734E-004
2	0	0	0	0	2,062199249644295E+004	1,4396551E+000	1,4391377E+000	-3,526969592298301E-001	1,000000000000000E+000	-1,1675595E-001	40	-5,0757948E-004
2	0	0	0	0	2,078692529444606E+004	1,3406954E+000	1,3402027E+000	-4,885040842180821E-001	1,000000000000000E+000	-1,8745875E-001	40	-6,5469451E-004
2	0	0	1	0	2,095185799244919E+004	1,2417357E+000	1,2412277E+000	-5,067010024367393E-001	1,000000000000000E+000	-2,7120379E-001	40	-6,2893133E-004
2	0	0	1	0	2,111679079045232E+004	1,1427761E+000	1,1422727E+000	-4,449679070713604E-001	1,000000000000000E+000	-3,5018420E-001	40	-5,0827471E-004
2	0	0	1	0	2,128172348845541E+004	1,0438164E+000	1,0432913E+000	-3,773296415223224E-001	1,000000000000000E+000	-4,1778225E-001	40	-3,9366476E-004
2	0	0	1	0	2,144399148649082E+004	1,0535126E+000	1,0529914E+000	-2,129667955144350E-001	1,000000000000000E+000	-4,6877918E-001	40	-2,2425220E-004
2	0	0	0	0	2,160892428449399E+004	1,1524723E+000	1,1519037E+000	-1,045751400811870E-001	1,000000000000000E+000	-4,9365777E-001	40	-1,2046049E-004
2	0	0	1	0	2,177385728249709E+004	1,2514321E+000	1,2508626E+000	-5,150362063367681E-002	1,000000000000000E+000	-5,0610429E-001	40	-6,4423955E-005
2	0	0	1	0	2,193879018050031E+004	1,3503915E+000	1,3498714E+000	-1,697641753645837E-002	1,000000000000000E+000	-5,1158684E-001	41	-2,2915980E-005
2	1	0	1	0	2,210372307850333E+004	1,4493513E+000	1,4487907E+000	1,371333969083985E-002	1,000000000000000E+000	-5,1188290E-001	41	1,9867759E-005
2	1	0	0	0	2,226865587650647E+004	1,5483108E+000	1,5476584E+000	5,450679883155152E-002	1,000000000000000E+000	-5,0647312E-001	41	8,4357911E-005
2	1	0	1	0	2,243358877450961E+004	1,6472703E+000	1,6467026E+000	1,663285212851975E-001	1,000000000000000E+000	-4,9063015E-001	40	2,7389362E-004
2	1	0	1	0	2,259852187251271E+004	1,7462300E+000	1,7455778E+000	3,855178717469747E-001	1,000000000000000E+000	-4,4525224E-001	40	6,7295146E-004
2	1	0	1	0	2,276345477051585E+004	1,8451893E+000	1,8445576E+000	5,666381657625101E-001	1,000000000000000E+000	-3,6535695E-001	40	1,0451968E-003
2	1	0	1	0	2,292838766851893E+004	1,9441494E+000	1,9435000E+000	5,921649409391363E-001	1,000000000000000E+000	-2,6701459E-001	40	1,1508726E-003
2	1	0	1	0	2,309332066652211E+004	2,0431089E+000	2,0425024E+000	4,385543536640379E-001	1,000000000000000E+000	-1,8026143E-001	40	8,9574832E-004
2	1	0	1	0	2,325825356452522E+004	2,1420686E+000	2,1414654E+000	2,653330235760551E-001	1,000000000000000E+000	-1,2322199E-001	40	5,6820147E-004
2	1	0	1	0	2,342318676252832E+004	2,2410281E+000	2,2404730E+000	1,728458527812218E-001	1,000000000000000E+000	-8,7978445E-002	40	3,8725647E-004
2	1	0	1	0	2,358811976053147E+004	2,3399875E+000	2,3394659E+000	1,199821373048209E-001	1,000000000000000E+000	-6,4090982E-002	40	2,8069410E-004
2	1	0	1	0	2,375305295853459E+004	2,4389472E+000	2,4384410E+000	7,946940733133401E-002	1,000000000000000E+000	-4,7761053E-002	40	1,9378147E-004
2	1	0	1	0	2,391798615653771E+004	2,5379069E+000	2,5373950E+000	5,592527517893842E-002	1,000000000000000E+000	-3,6833737E-002	40	1,4190451E-004
2	1	0	1	0	2,408308545453881E+004	2,6369665E+000	2,6364198E+000	4,540508926966280E-002	1,000000000000000E+000	-2,8569376E-002	41	1,1970688E-004
2	1	0	1	1	2,424568645257014E+004	2,6654551E+000	2,6649437E+000	2,415983088322271E-002	1,000000000000000E+000	-2,2308644E-002	41	6,4384592E-005
2	1	0	1	1	2,441061925057331E+004	2,5664957E+000	2,5659513E+000	1,009550486775453E-002	1,000000000000000E+000	-1,9713201E-002	41	2,5904574E-005
2	1	0	1	1	2,457288654860870E+004	2,4691348E+000	2,4685833E+000	4,277455106395312E-003	2,000000000000000E+000	-1,8609347E-002	42	1,0559254E-005
2	1	0	1	1	2,473781914661184E+004	2,3701754E+000	2,3696179E+000	3,269208168788082E-004	2,000000000000000E+000	-1,8252289E-002	43	7,7467746E-007
2	0	0	1	1	2,490275194461496E+004	2,2712157E+000	2,2707200E+000	-3,531622342661092E-003	2,000000000000000E+000	-1,8520854E-002	42	-8,0193258E-006
2	0	0	1	1	2,506768484261807E+004	2,1722562E+000	2,1718266E+000	-8,351300215118929E-003	2,000000000000000E+000	-1,9494215E-002	42	-1,8137576E-005
2	0	0	1	1	2,523261764062123E+004	2,0732965E+000	2,0728023E+000	-1,518384425364216E-002	2,000000000000000E+000	-2,1416150E-002	41	-3,1473108E-005
2	0	0	1	1	2,539755043862434E+004	1,9743369E+000	1,9738289E+000	-2,534138870140629E-002	2,000000000000000E+000	-2,4713807E-002	41	-5,0019567E-005
2	0	0	1	1	2,556248313662747E+004	1,8753773E+000	1,8749295E+000	-4,120875100018273E-002	2,000000000000000E+000	-3,0115226E-002	41	-7,7263503E-005
2	0	0	1	1	2,572741593463059E+004	1,7764175E+000	1,7759459E+000	-6,729396937848353E-002	2,000000000000000E+000	-3,8906466E-002	41	-1,1951045E-004
2	0	0	1	1	2,589234873263375E+004	1,6774578E+000	1,6769254E+000	-1,080206159530843E-001	2,000000000000000E+000	-5,3158697E-002	40	-1,8114252E-004
2	0	0	1	1	2,605728153063686E+004	1,5784981E+000	1,5779773E+000	-1,661023247413032E-001	2,000000000000000E+000	-7,5456053E-002	40	-2,6210569E-004
2	0	0	1	1	2,622221422863996E+004	1,4795388E+000	1,4790008E+000	-2,695143213445879E-001	2,000000000000000E+000	-1,1039522E-001	40	-3,9861191E-004
2	0	0	1	1	2,638714702664310E+004	1,3805791E+000	1,3800946E+000	-4,336541382377757E-001	2,000000000000000E+000	-1,6846727E-001	40	-5,9848378E-004
2	0	0	1	1	2,655207972464623E+004	1,2816194E+000	1,2811266E+000	-5,136718630671169E-001	2,000000000000000E+000	-2,4850520E-001	40	-6,5807870E-004
2	0	0	1	1	2,671701252264937E+004	1,1826599E+000	1,1821812E+000	-4,788210210492281E-001	2,000000000000000E+000	-3,3139756E-001	40	-5,6605320E-004
2	0	0	1	1	2,688194522065249E+004	1,0837002E+000	1,0831949E+000	-4,071154175743352E-001	2,000000000000000E+000	-4,0455359E-001	40	-4,4098531E-004
2	0	0	1	1	2,704404661868990E+004	1,0135289E+000	1,0130185E+000	-3,034390253609454E-001	2,000000000000000E+000	-4,6500206E-001	40	-3,0738933E-004
2	0	0	1	1	2,720897931669303E+004	1,1124885E+000	1,1119446E+000	-1,383638658708075E-001	2,000000000000000E+000	-4,9888527E-001	40	-1,5385295E-004
2	0	0	0	1	2,737391221469615E+004	1,2114483E+000	1,2108920E+000	-6,999543356533994E-002	2,000000000000000E+000	-5,1542890E-001	40	-8,4756910E-005
2	0	0	0	1	2,753884501269925E+004	1,3104079E+000	1,3098918E+000	-2,997530293923725E-002	2,000000000000000E+000	-5,2343440E-001	41	-3,9264403E-005
2	1	0	1	1	2,770377791070240E+004	1,4093674E+000	1,4087474E+000	5,454336597959532E-004	2,000000000000000E+000	-5,2579916E-001	43	7,6837824E-007
2	1	0	1	1	2,786871090870553E+004	1,5083269E+000	1,5077173E+000	3,545150970647065E-002	2,000000000000000E+000	-5,2295512E-001	41	5,3450854E-005
2	1	0	0	1	2,803364380670863E+004	1,6072868E+000	1,6066219E+000	9,562801962729095E-002	2,000000000000000E+000	-5,1288098E-001	41	1,5363807E-004
2	1	0	1	1	2,819857680471177E+004	1,7062465E+000	1,7056663E+000	2,862364379106264E-001	2,000000000000000E+000	-4,8264137E-001	40	4,8822386E-004
2	1	0	1	1	2,836350960271490E+004	1,8052058E+000	1,8045940E+000	4,915985105138279E-001	2,000000000000000E+000	-4,1791266E-001	40	8,8713574E-004
2	1	0	1	1	2,852844260071800E+004	1,9041657E+000	1,9035400E+000	5,963283377293660E-001	2,000000000000000E+000	-3,2601810E-001	40	1,1351348E-003
2	1	0	1	1	2,869337569872115E+004	2,0031250E+000	2,0025153E+000	5,254974313912211E-001	2,000000000000000E+000	-2,3105824E-001	40	1,0523166E-003
2	1	0	1	1	2,885830869672426E+004	2,1020849E+000	2,1014888E+000	3,443772453901963E-001	2,000000000000000E+000	-1,5901069E-001	40	7,2370493E-004
2	1	0	1	1	2,902324169472739E+004	2,2010446E+000	2,2004941E+000	2,138946458429327E-001	2,000000000000000E+000	-1,1418008E-001	40	4,7067390E-004
2	1	0	1	1	2,918817489273060E+004	2,3000040E+000	2,2994807E+000	1,448905010258158E-001	2,000000000000000E+000	-8,4982097E-002	40	3,3317291E-004
2	1	0	1	1	2,935310769073362E+004	2,3989637E+000	2,3984635E+000	9,259209417605740E-002	2,000000000000000E+000	-6,5604299E-002	40	2,2207876E-004
2	1	0	1	1	2,951804068873677E+004	2,4979231E+000	2,4974079E+000	6,250542198139653E-002	2,000000000000000E+000	-5,3107008E-002	40	1,5610154E-004
2	1	0	1	1	2,968314058673786E+004	2,5969830E+000	2,5964074E+000	4,836116132779156E-002	2,000000000000000E+000	-4,4095121E-002	41	1,2556528E-004
2	1	0	1	1	2,984807358474104E+004	2,6959424E+000	2,6954188E+000	4,113939686395329E-002	2,000000000000000E+000	-3,6740601E-002	41	1,1088791E-004
2	1	0	1	0	3,001067428277238E+004	2,6064789E+000	2,6059484E+000	1,409798822952696E-002	2,000000000000000E+000	-3,2947205E-002	41	3,6738631E-005
2	1	0	1	0	3,014178738118496E+004	2,5277619E+000	2,5272760E+000	7,308309023546126E-003	2,000000000000000E+000	-3,1593658E-002	41	1,8470115E-005