File: Dati/201009/CV_CNTmultiwalled_1_4_12layer_02_CV_C03.mpt
EC-Lab ASCII FILE
Nb header lines : 57

Cyclic Voltammetry

Run on channel : 3 (SN 6807)
User :
Electrode connection : standard
Ewe ctrl range : min = -5,00 V, max = 5,00 V
Ewe,I filtering : 50 kHz
Safety Limits :
	Do not start on E overload
Channel : Grounded
Acquisition started on : 10/09/2020 18:33:11
Saved on :
	File : CV_CNTmultiwalled_1_4_12layer_02_CV_C03.mpr
	Directory : C:\Users\labsuperfici\Desktop\Biologic\Users\Prisca Viviani\201009\
	Host : 10.78.33.0
Device : VSP-300 (SN 0638)
Address : USB
EC-Lab for windows v11.31 (software)
Internet server v11.30 (firmware)
Command interpretor v11.31 (firmware)
Electrode material :
Initial state :
Electrolyte :
Comments :
Cable : standard
Reference electrode : SCE Saturated Calomel Electrode (0,241 V)
Electrode surface area : 0,001 cm²
Characteristic mass : 0,001 g
Equivalent Weight : 0,000 g/eq.
Density : 0,000 g/cm3
Cycle Definition : Charge/Discharge alternance
Ei (V)              0,000
vs.                 Eoc
dE/dt               0,500
dE/dt unit          mV/s
E1 (V)              2,800
vs.                 Ref
Step percent        50
N                   10
E range min (V)     -5,000
E range max (V)     5,000
I Range             Auto
I Range min         Unset
I Range max         Unset
I Range init        Unset
Bandwidth           8
E2 (V)              4,300
vs.                 Ref
nc cycles           2
Reverse Scan        1
Ef (V)              0,000
vs.                 Eoc

mode	ox/red	error	control changes	counter inc.	time/s	control/V	Ewe/V	<I>/mA	cycle number	(Q-Qo)/C	I Range	P/W
2	0	0	1	0	4,520363917255215E+004	2,7795434E+000	2,7794564E+000	-6,686145812273026E-002	1,000000000000000E+000	0,0000000E+000	41	-1,8583851E-004
2	0	0	1	0	4,545454067301960E+004	2,9049921E+000	2,9048746E+000	-3,177635377316743E-002	1,000000000000000E+000	-1,1314616E-002	41	-9,2306320E-005
2	0	0	1	0	4,571443707350362E+004	3,0349400E+000	3,0348017E+000	-1,550878072136641E-002	1,000000000000000E+000	-1,7272167E-002	41	-4,7066074E-005
2	0	0	1	0	4,597433347398764E+004	3,1648884E+000	3,1648433E+000	-4,929178495810524E-003	1,000000000000000E+000	-1,9828506E-002	41	-1,5600077E-005
2	1	0	1	0	4,623423027447180E+004	3,2948365E+000	3,2947180E+000	2,998809291466956E-003	1,000000000000000E+000	-2,0047063E-002	42	9,8802311E-006
2	1	0	1	0	4,649412667495594E+004	3,4247842E+000	3,4246869E+000	1,403207849923224E-002	1,000000000000000E+000	-1,8006809E-002	41	4,8055477E-005
2	1	0	1	0	4,675402317543997E+004	3,5547323E+000	3,5546072E+000	5,869436889296842E-002	1,000000000000000E+000	-9,9584498E-003	41	2,0863542E-004
2	1	0	1	0	4,701392007592414E+004	3,6846802E+000	3,6846082E+000	1,261547648800456E-001	1,000000000000000E+000	1,4561323E-002	40	4,6483090E-004
2	1	0	1	0	4,727381647640816E+004	3,8146284E+000	3,8145459E+000	1,573522238679929E-001	1,000000000000000E+000	5,2368604E-002	40	6,0022727E-004
2	1	0	1	0	4,753371287689242E+004	3,9445765E+000	3,9445033E+000	1,466705673150202E-001	1,000000000000000E+000	9,2552811E-002	40	5,7854253E-004
2	1	0	1	0	4,779360947737633E+004	4,0745239E+000	4,0744643E+000	1,204205693184078E-001	1,000000000000000E+000	1,2733056E-001	40	4,9064931E-004
2	1	0	1	0	4,805350667786051E+004	4,2044721E+000	4,2043471E+000	9,646621638538755E-002	1,000000000000000E+000	1,5540023E-001	40	4,0557745E-004
2	1	0	1	1	4,830660587833193E+004	4,2688460E+000	4,2686863E+000	6,289443271865147E-002	2,000000000000000E+000	1,7690307E-001	40	2,6847661E-004
2	1	0	1	1	4,856650097881584E+004	4,1388984E+000	4,1387248E+000	3,197804096778692E-002	2,000000000000000E+000	1,8861060E-001	41	1,3234832E-004
2	1	0	1	1	4,882639677930018E+004	4,0089502E+000	4,0087605E+000	1,722011671723975E-002	2,000000000000000E+000	1,9478722E-001	41	6,9031325E-005
2	1	0	1	1	4,908629267978412E+004	3,8790026E+000	3,8787932E+000	8,941288786716656E-003	2,000000000000000E+000	1,9807073E-001	41	3,4681412E-005
2	1	0	1	1	4,934618878026842E+004	3,7490549E+000	3,7488110E+000	3,824116599578493E-003	2,000000000000000E+000	1,9966930E-001	42	1,4335890E-005
2	0	0	1	1	4,960608458075230E+004	3,6191068E+000	3,6189625E+000	-3,427381189898741E-004	2,000000000000000E+000	2,0010847E-001	43	-1,2403564E-006
2	0	0	1	1	4,986598068123648E+004	3,4891584E+000	3,4890232E+000	-6,919408649293034E-003	2,000000000000000E+000	1,9924980E-001	42	-2,4141977E-005
2	0	0	1	1	5,012587638172065E+004	3,3592105E+000	3,3590162E+000	-3,031557898727977E-002	2,000000000000000E+000	1,9528432E-001	41	-1,0183052E-004
2	0	0	1	1	5,038577258220472E+004	3,2292628E+000	3,2291684E+000	-9,480709066119442E-002	2,000000000000000E+000	1,7871799E-001	41	-3,0614805E-004
2	0	0	1	1	5,064566828268871E+004	3,0993149E+000	3,0991347E+000	-1,260434950736014E-001	2,000000000000000E+000	1,4928263E-001	40	-3,9062576E-004
2	0	0	1	1	5,090556438317290E+004	2,9693666E+000	2,9691551E+000	-1,360807592375299E-001	2,000000000000000E+000	1,1486676E-001	40	-4,0404487E-004
2	0	0	1	1	5,116546008365694E+004	2,8394186E+000	2,8392010E+000	-1,340727247632532E-001	2,000000000000000E+000	7,9624347E-002	40	-3,8065942E-004
2	0	0	1	1	5,141856038412848E+004	2,8869994E+000	2,8867586E+000	-7,963383636122745E-002	2,000000000000000E+000	5,1272642E-002	40	-2,2988366E-004
2	0	0	1	1	5,167845708461246E+004	3,0169475E+000	3,0167727E+000	-4,164871404659998E-002	2,000000000000000E+000	3,6091361E-002	41	-1,2564470E-004
2	0	0	1	1	5,193835328509659E+004	3,1468956E+000	3,1467021E+000	-2,073538581549600E-002	2,000000000000000E+000	2,8226651E-002	41	-6,5248081E-005
2	0	0	1	1	5,219824988558062E+004	3,2768438E+000	3,2766204E+000	-6,318833281452468E-003	2,000000000000000E+000	2,4800632E-002	41	-2,0704418E-005
2	1	0	1	1	5,245814648606488E+004	3,4067912E+000	3,4065197E+000	9,159085819932467E-003	2,000000000000000E+000	2,5038267E-002	42	3,1200605E-005
2	1	0	1	1	5,271804318654881E+004	3,5367398E+000	3,5364728E+000	5,289983041969359E-002	2,000000000000000E+000	3,1799495E-002	41	1,8707881E-004
2	1	0	1	1	5,297793938703300E+004	3,6666875E+000	3,6664610E+000	1,254915473373761E-001	2,000000000000000E+000	5,5423204E-002	40	4,6010988E-004
2	1	0	1	1	5,323783638751705E+004	3,7966356E+000	3,7964284E+000	1,554773391255888E-001	2,000000000000000E+000	9,3257383E-002	40	5,9025857E-004
2	1	0	1	1	5,349773258800118E+004	3,9265838E+000	3,9263656E+000	1,355001785524067E-001	2,000000000000000E+000	1,3185544E-001	40	5,3202326E-004
2	1	0	1	1	5,375762958848529E+004	4,0565314E+000	4,0563512E+000	1,018058985969714E-001	2,000000000000000E+000	1,6263247E-001	40	4,1296048E-004
2	1	0	1	1	5,401752608896932E+004	4,1864791E+000	4,1863260E+000	7,323405191901725E-002	2,000000000000000E+000	1,8521436E-001	40	3,0658161E-004
2	1	0	1	0	5,427062528944085E+004	4,2868395E+000	4,2866478E+000	4,585922339088144E-002	3,000000000000000E+000	2,0117889E-001	41	1,9658233E-004
2	1	0	1	0	5,453052088992507E+004	4,1568913E+000	4,1567240E+000	1,884023967813975E-002	3,000000000000000E+000	2,0876533E-001	41	7,8313678E-005
2	1	0	1	0	5,479041669040895E+004	4,0269432E+000	4,0267811E+000	8,904110322859371E-003	3,000000000000000E+000	2,1219417E-001	41	3,5854904E-005
2	1	0	1	0	5,505031259089307E+004	3,8969955E+000	3,8967812E+000	3,692917507108874E-003	3,000000000000000E+000	2,1374837E-001	42	1,4390492E-005
2	1	0	1	0	5,531020849137707E+004	3,7670472E+000	3,7668297E+000	4,795597565036840E-004	3,000000000000000E+000	2,1424569E-001	43	1,8064200E-006
2	0	0	1	0	5,557010449186130E+004	3,6370993E+000	3,6369462E+000	-2,243646405981826E-003	3,000000000000000E+000	2,1401151E-001	42	-8,1600210E-006
2	0	0	1	0	5,583000049234531E+004	3,5071514E+000	3,5070472E+000	-7,215555499770238E-003	3,000000000000000E+000	2,1285501E-001	42	-2,5305293E-005
2	0	0	1	0	5,608989629282942E+004	3,3772035E+000	3,3770101E+000	-2,476290204632059E-002	3,000000000000000E+000	2,0930530E-001	41	-8,3624567E-005
2	0	0	1	0	5,634979229331354E+004	3,2472551E+000	3,2471261E+000	-9,036641977478732E-002	3,000000000000000E+000	1,9453421E-001	41	-2,9343116E-004
2	0	0	1	0	5,660968819379783E+004	3,1173077E+000	3,1171076E+000	-1,274857386228976E-001	3,000000000000000E+000	1,6535644E-001	40	-3,9738676E-004
2	0	0	1	0	5,686958409428154E+004	2,9873593E+000	2,9871628E+000	-1,389666168163195E-001	3,000000000000000E+000	1,3030452E-001	40	-4,1511591E-004
2	0	0	1	0	5,712947999476580E+004	2,8574116E+000	2,8571997E+000	-1,387839600559846E-001	3,000000000000000E+000	9,4058186E-002	40	-3,9653349E-004
2	0	0	1	0	5,738258009523724E+004	2,8690066E+000	2,8687835E+000	-9,090552964397225E-002	3,000000000000000E+000	6,2862962E-002	40	-2,6078828E-004
2	0	0	1	0	5,764247649572132E+004	2,9989543E+000	2,9987471E+000	-4,767142683643250E-002	3,000000000000000E+000	4,5515597E-002	41	-1,4295455E-004
2	0	0	1	0	5,790237299620546E+004	3,1289027E+000	3,1287084E+000	-2,431572953341737E-002	3,000000000000000E+000	3,6427930E-002	41	-7,6076823E-005
2	0	0	1	0	5,816226949668949E+004	3,2588508E+000	3,2586002E+000	-8,733080745920645E-003	3,000000000000000E+000	3,2246832E-002	41	-2,8457618E-005
2	1	0	1	0	5,842216629717359E+004	3,3887985E+000	3,3884830E+000	6,749603676597882E-003	3,000000000000000E+000	3,1898815E-002	42	2,2870918E-005
2	1	0	1	0	5,868206269765773E+004	3,5187466E+000	3,5184736E+000	4,611215941817504E-002	3,000000000000000E+000	3,7559450E-002	41	1,6224441E-004
2	1	0	1	0	5,894195909814176E+004	3,6486950E+000	3,6484497E+000	1,253499663970374E-001	3,000000000000000E+000	5,9960403E-002	40	4,5733305E-004
2	1	0	1	0	5,920185569862591E+004	3,7786429E+000	3,7784119E+000	1,626684709238448E-001	3,000000000000000E+000	9,8733120E-002	40	6,1462849E-004
2	1	0	1	0	5,946175239911000E+004	3,9085910E+000	3,9083943E+000	1,434295137083454E-001	3,000000000000000E+000	1,3940383E-001	40	5,6057912E-004
2	1	0	1	0	5,972164929959411E+004	4,0385385E+000	4,0383444E+000	1,078565712041468E-001	3,000000000000000E+000	1,7203145E-001	40	4,3556199E-004
2	1	0	1	0	5,998154540007841E+004	4,1684861E+000	4,1683140E+000	7,752961104906653E-002	3,000000000000000E+000	1,9599868E-001	40	3,2316777E-004
2	1	0	1	0	6,024144210056239E+004	4,2984343E+000	4,2982697E+000	5,772500414528042E-002	3,000000000000000E+000	2,1324177E-001	40	2,4811763E-004
2	1	0	1	1	6,049454080103384E+004	4,1748843E+000	4,1747031E+000	2,006468534733966E-002	3,000000000000000E+000	2,2141300E-001	41	8,3764106E-005
2	1	0	1	1	6,075443610151776E+004	4,0449362E+000	4,0447659E+000	9,097327509731298E-003	3,000000000000000E+000	2,2500305E-001	41	3,6796562E-005
2	1	0	1	1	6,101433250200190E+004	3,9149880E+000	3,9147816E+000	3,433816950403117E-003	3,000000000000000E+000	2,2653335E-001	42	1,3442644E-005
2	1	0	1	1	6,127422830248624E+004	3,7850401E+000	3,7848115E+000	2,028474046710900E-004	3,000000000000000E+000	2,2695372E-001	43	7,6773921E-007
2	0	0	1	1	6,153412440297008E+004	3,6550920E+000	3,6549022E+000	-2,347992201769664E-003	3,000000000000000E+000	2,2666429E-001	42	-8,5816819E-006
2	0	0	1	1	6,179402010345412E+004	3,5251443E+000	3,5250258E+000	-6,748029758861324E-003	3,000000000000000E+000	2,2554669E-001	42	-2,3786979E-005
2	0	0	1	1	6,205391630393825E+004	3,3951960E+000	3,3949862E+000	-2,091424435433681E-002	3,000000000000000E+000	2,2238825E-001	41	-7,1003567E-005
2	0	0	1	1	6,231381190442242E+004	3,2652485E+000	3,2651055E+000	-8,642536455156186E-002	3,000000000000000E+000	2,0922275E-001	41	-2,8218795E-004
2	0	0	1	1	6,257370810490660E+004	3,1353004E+000	3,1351011E+000	-1,311469379805094E-001	3,000000000000000E+000	1,7992409E-001	40	-4,1115889E-004
2	0	0	1	1	6,283360380539077E+004	3,0053523E+000	3,0051115E+000	-1,453047920104442E-001	3,000000000000000E+000	1,4350162E-001	40	-4,3665711E-004
2	0	0	1	1	6,309349990587460E+004	2,8754039E+000	2,8751733E+000	-1,450154906357806E-001	3,000000000000000E+000	1,0561612E-001	40	-4,1694468E-004
2	0	0	0	1	6,328493480623118E+004	2,7795434E+000	2,7793345E+000	-1,423606897438452E-001	3,000000000000000E+000	7,8078598E-002	40	-3,9566797E-004