File: Dati/201009/CV_CNTmultiwalled_1_4_12layer_03_CV_C03.mpt
EC-Lab ASCII FILE
Nb header lines : 57

Cyclic Voltammetry

Run on channel : 3 (SN 6807)
User :
Electrode connection : standard
Ewe ctrl range : min = -5,00 V, max = 5,00 V
Ewe,I filtering : 50 kHz
Safety Limits :
	Do not start on E overload
Channel : Grounded
Acquisition started on : 10/09/2020 18:33:11
Saved on :
	File : CV_CNTmultiwalled_1_4_12layer_03_CV_C03.mpr
	Directory : C:\Users\labsuperfici\Desktop\Biologic\Users\Prisca Viviani\201009\
	Host : 10.78.33.0
Device : VSP-300 (SN 0638)
Address : USB
EC-Lab for windows v11.31 (software)
Internet server v11.30 (firmware)
Command interpretor v11.31 (firmware)
Electrode material :
Initial state :
Electrolyte :
Comments :
Cable : standard
Reference electrode : SCE Saturated Calomel Electrode (0,241 V)
Electrode surface area : 0,001 cm²
Characteristic mass : 0,001 g
Equivalent Weight : 0,000 g/eq.
Density : 0,000 g/cm3
Cycle Definition : Charge/Discharge alternance
Ei (V)              0,000
vs.                 Eoc
dE/dt               1,000
dE/dt unit          mV/s
E1 (V)              2,800
vs.                 Ref
Step percent        50
N                   10
E range min (V)     -5,000
E range max (V)     5,000
I Range             Auto
I Range min         Unset
I Range max         Unset
I Range init        Unset
Bandwidth           8
E2 (V)              4,300
vs.                 Ref
nc cycles           2
Reverse Scan        1
Ef (V)              0,000
vs.                 Eoc

mode	ox/red	error	control changes	counter inc.	time/s	control/V	Ewe/V	<I>/mA	cycle number	(Q-Qo)/C	I Range	P/W
2	0	0	1	0	6,328523500623176E+004	2,7795434E+000	2,7793686E+000	-1,468453258275986E-001	1,000000000000000E+000	0,0000000E+000	40	-4,0813730E-004
2	0	0	1	0	6,341068600646558E+004	2,9049921E+000	2,9048254E+000	-7,934705786113361E-002	1,000000000000000E+000	-1,3303498E-002	40	-2,3048936E-004
2	0	0	1	0	6,354063410670753E+004	3,0349402E+000	3,0347855E+000	-4,417148981982370E-002	1,000000000000000E+000	-2,1146417E-002	41	-1,3405099E-004
2	0	0	1	0	6,367058220694953E+004	3,1648884E+000	3,1647794E+000	-2,063403476295639E-002	1,000000000000000E+000	-2,5259791E-002	41	-6,5302171E-005
2	0	0	1	0	6,380053030719172E+004	3,2948368E+000	3,2947209E+000	-2,260845979829604E-003	1,000000000000000E+000	-2,6716206E-002	42	-7,4488566E-006
2	1	0	1	0	6,393047850743379E+004	3,4247842E+000	3,4246500E+000	1,965043209837003E-002	1,000000000000000E+000	-2,5696347E-002	41	6,7295849E-005
2	1	0	1	0	6,406042650767579E+004	3,5547321E+000	3,5545454E+000	7,662889561627106E-002	1,000000000000000E+000	-2,0169230E-002	41	2,7238089E-004
2	1	0	1	0	6,419037470791771E+004	3,6846800E+000	3,6845508E+000	1,696468028394760E-001	1,000000000000000E+000	-4,1237697E-003	40	6,2507228E-004
2	1	0	1	0	6,432032290815981E+004	3,8146284E+000	3,8144727E+000	2,339871900245418E-001	1,000000000000000E+000	2,2586461E-002	40	8,9253776E-004
2	1	0	1	0	6,445027090840181E+004	3,9445763E+000	3,9444606E+000	2,446851061517306E-001	1,000000000000000E+000	5,4354154E-002	40	9,6515077E-004
2	1	0	1	0	6,458021920864389E+004	4,0745244E+000	4,0743742E+000	2,125470500213211E-001	1,000000000000000E+000	8,4378213E-002	40	8,6599623E-004
2	1	0	1	0	6,471016770888594E+004	4,2044721E+000	4,2043104E+000	1,713518998661692E-001	1,000000000000000E+000	1,0931825E-001	40	7,2041660E-004
2	1	0	1	1	6,483671730912174E+004	4,2688460E+000	4,2686491E+000	1,092146199061187E-001	2,000000000000000E+000	1,2814128E-001	40	4,6619889E-004
2	1	0	1	1	6,496666520936368E+004	4,1388984E+000	4,1386948E+000	5,285133848098572E-002	2,000000000000000E+000	1,3811357E-001	40	2,1873556E-004
2	1	0	1	1	6,509661340960575E+004	4,0089502E+000	4,0086942E+000	2,585573913399844E-002	2,000000000000000E+000	1,4302304E-001	41	1,0364775E-004
2	1	0	1	1	6,522656130984786E+004	3,8790028E+000	3,8787763E+000	1,153922272086780E-002	2,000000000000000E+000	1,4534874E-001	41	4,4758064E-005
2	1	0	1	1	6,535650931008998E+004	3,7490549E+000	3,7487667E+000	3,258131757236264E-003	2,000000000000000E+000	1,4625932E-001	42	1,2213975E-005
2	0	0	1	1	6,548645721033186E+004	3,6191068E+000	3,6189215E+000	-3,167047055785473E-003	2,000000000000000E+000	1,4625551E-001	42	-1,1461295E-005
2	0	0	1	1	6,561640529136884E+004	3,4891579E+000	3,4889407E+000	-1,266826916986519E-002	2,000000000000000E+000	1,4528723E-001	41	-4,4198841E-005
2	0	0	1	1	6,574635306066449E+004	3,3592100E+000	3,3590140E+000	-4,023054304923424E-002	2,000000000000000E+000	1,4225094E-001	41	-1,3513496E-004
2	0	0	1	1	6,587630112990132E+004	3,2292626E+000	3,2290323E+000	-1,198126266643671E-001	2,000000000000000E+000	1,3198569E-001	40	-3,8687885E-004
2	0	0	1	1	6,600624899918004E+004	3,0993140E+000	3,0991275E+000	-1,778244625023713E-001	2,000000000000000E+000	1,1224030E-001	40	-5,5110070E-004
2	0	0	1	1	6,613619696843333E+004	2,9693661E+000	2,9691391E+000	-2,078646026673967E-001	2,000000000000000E+000	8,6872265E-002	40	-6,1717891E-004
2	0	0	1	1	6,626614483769587E+004	2,8394184E+000	2,8391984E+000	-2,197490773038229E-001	2,000000000000000E+000	5,8898348E-002	40	-6,2391121E-004
2	0	0	1	1	6,639269530777540E+004	2,8869989E+000	2,8867795E+000	-1,442015434456421E-001	2,000000000000000E+000	3,4705743E-002	40	-4,1627805E-004
2	0	0	1	1	6,652264347700914E+004	3,0169470E+000	3,0167120E+000	-8,110369122708205E-002	2,000000000000000E+000	2,0441897E-002	40	-2,4466647E-004
2	0	0	1	1	6,665259134630719E+004	3,1468952E+000	3,1467023E+000	-4,236895417471143E-002	2,000000000000000E+000	1,2597487E-002	41	-1,3332248E-004
2	0	0	1	1	6,678253961552627E+004	3,2768435E+000	3,2766385E+000	-1,473663416981766E-002	2,000000000000000E+000	8,9634433E-003	41	-4,8286623E-005
2	1	0	1	1	6,691268768478493E+004	3,4069912E+000	3,4067826E+000	1,288631696116782E-002	2,000000000000000E+000	8,7735755E-003	41	4,3900880E-005
2	1	0	1	1	6,704263555400819E+004	3,5369389E+000	3,5366521E+000	6,800577592476476E-002	2,000000000000000E+000	1,3430651E-002	41	2,4051277E-004
2	1	0	1	1	6,717258372330060E+004	3,6668870E+000	3,6666405E+000	1,616876888310206E-001	2,000000000000000E+000	2,8363958E-002	40	5,9285061E-004
2	1	0	1	1	6,730253179253993E+004	3,7968352E+000	3,7966261E+000	2,277391682879149E-001	2,000000000000000E+000	5,4272328E-002	40	8,6464046E-004
2	1	0	1	1	6,743247986181639E+004	3,9267831E+000	3,9265745E+000	2,307192299713030E-001	2,000000000000000E+000	8,4800236E-002	40	9,0593623E-004
2	1	0	1	1	6,756242813107185E+004	4,0567312E+000	4,0564809E+000	1,852815697356749E-001	2,000000000000000E+000	1,1207936E-001	40	7,5159117E-004
2	1	0	1	1	6,769237630033190E+004	4,1866798E+000	4,1865163E+000	1,336775448151404E-001	2,000000000000000E+000	1,3274948E-001	40	5,5964320E-004
2	1	0	1	0	6,781872577046097E+004	4,2868390E+000	4,2866602E+000	7,898719327936021E-002	3,000000000000000E+000	1,4690106E-001	40	3,3859126E-004
2	1	0	1	0	6,794867383969226E+004	4,1568913E+000	4,1566939E+000	2,987462725714657E-002	3,000000000000000E+000	1,5322882E-001	41	1,2417969E-004
2	1	0	1	0	6,807862200899329E+004	4,0269427E+000	4,0267525E+000	1,223816391376129E-002	3,000000000000000E+000	1,5581380E-001	41	4,9280057E-005
2	1	0	1	0	6,820856987821122E+004	3,8969948E+000	3,8967726E+000	3,381927310611776E-003	3,000000000000000E+000	1,5675250E-001	42	1,3178602E-005
2	0	0	1	0	6,833851774751511E+004	3,7670474E+000	3,7668607E+000	-1,620771270936586E-003	3,000000000000000E+000	1,5683098E-001	42	-6,1052197E-006
2	0	0	1	0	6,846846581674181E+004	3,6370988E+000	3,6369755E+000	-5,679303027032373E-003	3,000000000000000E+000	1,5635176E-001	42	-2,0655487E-005
2	0	0	1	0	6,859841368603081E+004	3,5071511E+000	3,5069551E+000	-1,274767099114266E-002	3,000000000000000E+000	1,5520653E-001	41	-4,4705510E-005
2	0	0	1	0	6,872836155527411E+004	3,3772027E+000	3,3770113E+000	-3,346929336081070E-002	3,000000000000000E+000	1,5248519E-001	41	-1,1302618E-004
2	0	0	1	0	6,885830952454638E+004	3,2472553E+000	3,2470372E+000	-1,064661916734717E-001	3,000000000000000E+000	1,4377044E-001	40	-3,4569969E-004
2	0	0	1	0	6,898825749380552E+004	3,1173069E+000	3,1170938E+000	-1,698833634368691E-001	3,000000000000000E+000	1,2540518E-001	40	-5,2954239E-004
2	0	0	1	0	6,911820546306297E+004	2,9873593E+000	2,9871204E+000	-2,022907094651543E-001	3,000000000000000E+000	1,0095371E-001	40	-6,0426671E-004
2	0	0	1	0	6,924815343233733E+004	2,8574109E+000	2,8571968E+000	-2,159694898256830E-001	3,000000000000000E+000	7,3579699E-002	40	-6,1706733E-004
2	0	0	1	0	6,937470400237606E+004	2,8690064E+000	2,8687923E+000	-1,555101312887430E-001	3,000000000000000E+000	4,8371337E-002	40	-4,4612627E-004
2	0	0	1	0	6,950465197167965E+004	2,9989543E+000	2,9987075E+000	-8,778562341798990E-002	3,000000000000000E+000	3,2992151E-002	40	-2,6324342E-004
2	0	0	1	0	6,963459994089627E+004	3,1289022E+000	3,1287618E+000	-4,686994053060373E-002	3,000000000000000E+000	2,4450211E-002	41	-1,4664487E-004
2	0	0	1	0	6,976454811019846E+004	3,2588508E+000	3,2586377E+000	-1,837526736562745E-002	3,000000000000000E+000	2,0298688E-002	41	-5,9878337E-005
2	1	0	1	0	6,989469617938093E+004	3,3889985E+000	3,3886909E+000	8,391498620407934E-003	3,000000000000000E+000	1,9612197E-002	42	2,8436196E-005
2	1	0	1	0	7,002464404866751E+004	3,5189457E+000	3,5186653E+000	5,627686404570320E-002	3,000000000000000E+000	2,3333112E-002	41	1,9801945E-004
2	1	0	1	0	7,015459221791162E+004	3,6488948E+000	3,6486447E+000	1,493497245272453E-001	3,000000000000000E+000	3,6549050E-002	40	5,4492406E-004
2	1	0	1	0	7,028454028718360E+004	3,7788427E+000	3,7785993E+000	2,225520917278674E-001	3,000000000000000E+000	6,1221033E-002	40	8,4093516E-004
2	1	0	1	0	7,041448835644429E+004	3,9087906E+000	3,9085522E+000	2,340266090642000E-001	3,000000000000000E+000	9,1661490E-002	40	9,1470522E-004
2	1	0	1	0	7,054443662569870E+004	4,0387387E+000	4,0385189E+000	1,910008501329831E-001	3,000000000000000E+000	1,1960354E-001	40	7,7136053E-004
2	1	0	1	0	7,067438479497540E+004	4,1686864E+000	4,1684756E+000	1,374779776416362E-001	3,000000000000000E+000	1,4090765E-001	40	5,7307357E-004
2	1	0	1	0	7,080433276421460E+004	4,2986345E+000	4,2984581E+000	9,494418183288755E-002	3,000000000000000E+000	1,5578735E-001	40	4,0811358E-004
2	1	0	1	1	7,093068233436439E+004	4,1748838E+000	4,1746740E+000	3,109773733831944E-002	3,000000000000000E+000	1,6238908E-001	41	1,2982292E-004
2	1	0	1	1	7,106063030358218E+004	4,0449357E+000	4,0447383E+000	1,215200311600038E-002	3,000000000000000E+000	1,6503254E-001	41	4,9151673E-005
2	1	0	1	1	7,119057837288198E+004	3,9149878E+000	3,9147491E+000	2,876785272764124E-003	3,000000000000000E+000	1,6592866E-001	42	1,1261893E-005
2	0	0	1	1	7,132052634211443E+004	3,7850397E+000	3,7848434E+000	-2,032371696289762E-003	3,000000000000000E+000	1,6594358E-001	42	-7,6922088E-006
2	0	0	1	1	7,145047431139811E+004	3,6550918E+000	3,6549280E+000	-5,764547540126438E-003	3,000000000000000E+000	1,6542719E-001	42	-2,1069007E-005
2	0	0	1	1	7,158042208064569E+004	3,5251436E+000	3,5249627E+000	-1,186133077562726E-002	3,000000000000000E+000	1,6432559E-001	41	-4,1810748E-005
2	0	0	1	1	7,171037024991401E+004	3,3951955E+000	3,3949988E+000	-2,887733211162929E-002	3,000000000000000E+000	1,6189203E-001	41	-9,8038508E-005
2	0	0	1	1	7,184031801917800E+004	3,2652478E+000	3,2651429E+000	-9,546927277369538E-002	3,000000000000000E+000	1,5439536E-001	41	-3,1172083E-004
2	0	0	1	1	7,197026598842995E+004	3,1352997E+000	3,1351073E+000	-1,638844220256450E-001	3,000000000000000E+000	1,3714425E-001	40	-5,1379524E-004
2	0	0	1	1	7,210021385771036E+004	3,0053520E+000	3,0051134E+000	-1,996745839976435E-001	3,000000000000000E+000	1,1320766E-001	40	-6,0004473E-004
2	0	0	1	1	7,223016192694474E+004	2,8754039E+000	2,8751986E+000	-2,165675852663540E-001	3,000000000000000E+000	8,6001277E-002	40	-6,2267482E-004
2	0	0	0	1	7,232587940430408E+004	2,7795434E+000	2,7793307E+000	-2,213692602077266E-001	3,000000000000000E+000	6,5012604E-002	40	-6,1525841E-004