File: Dati/201009/CV_CNTmultiwalled_1_4_12layer_01_CV_C03.mpt
EC-Lab ASCII FILE
Nb header lines : 57

Cyclic Voltammetry

Run on channel : 3 (SN 6807)
User :
Electrode connection : standard
Ewe ctrl range : min = -5,00 V, max = 5,00 V
Ewe,I filtering : 50 kHz
Safety Limits :
	Do not start on E overload
Channel : Grounded
Acquisition started on : 10/09/2020 18:33:11
Saved on :
	File : CV_CNTmultiwalled_1_4_12layer_01_CV_C03.mpr
	Directory : C:\Users\labsuperfici\Desktop\Biologic\Users\Prisca Viviani\201009\
	Host : 10.78.33.0
Device : VSP-300 (SN 0638)
Address : USB
EC-Lab for windows v11.31 (software)
Internet server v11.30 (firmware)
Command interpretor v11.31 (firmware)
Electrode material :
Initial state :
Electrolyte :
Comments :
Cable : standard
Reference electrode : SCE Saturated Calomel Electrode (0,241 V)
Electrode surface area : 0,001 cm²
Characteristic mass : 0,001 g
Equivalent Weight : 0,000 g/eq.
Density : 0,000 g/cm3
Cycle Definition : Charge/Discharge alternance
Ei (V)              0,000
vs.                 Eoc
dE/dt               0,200
dE/dt unit          mV/s
E1 (V)              2,800
vs.                 Ref
Step percent        50
N                   10
E range min (V)     -5,000
E range max (V)     5,000
I Range             Auto
I Range min         Unset
I Range max         Unset
I Range init        Unset
Bandwidth           8
E2 (V)              4,300
vs.                 Ref
nc cycles           2
Reverse Scan        1
Ef (V)              0,000
vs.                 Eoc

mode	ox/red	error	control changes	counter inc.	time/s	control/V	Ewe/V	<I>/mA	cycle number	(Q-Qo)/C	I Range	P/W
2	0	1	0	0	0,000000000000000E+000	2,7795434E+000	2,7793496E+000	-3,425291215535253E-004	1,000000000000000E+000	0,0000000E+000	43	-9,5200818E-007
2	1	0	1	0	6,272534841542438E+002	2,9049923E+000	2,9047315E+000	4,886591630789139E-003	1,000000000000000E+000	2,0101883E-003	42	1,4194236E-005
2	1	0	1	0	1,276994767740398E+003	3,0349405E+000	3,0346358E+000	7,707087545148067E-003	1,000000000000000E+000	6,1375648E-003	42	2,3388204E-005
2	1	0	1	0	1,926736051326552E+003	3,1648881E+000	3,1647205E+000	1,165813891506959E-002	1,000000000000000E+000	1,2496014E-002	41	3,6894751E-005
2	1	0	1	0	2,576477334912721E+003	3,2948363E+000	3,2946899E+000	1,368115651006321E-002	1,000000000000000E+000	2,0950571E-002	41	4,5075169E-005
2	1	0	1	0	3,226218918498853E+003	3,4247842E+000	3,4246266E+000	1,660032601559949E-002	1,000000000000000E+000	3,0491242E-002	41	5,6849916E-005
2	1	0	1	0	3,875960202085007E+003	3,5547321E+000	3,5545182E+000	7,562312438362484E-002	1,000000000000000E+000	5,5799954E-002	41	2,6880376E-004
2	1	0	1	0	4,525701491323867E+003	3,6846807E+000	3,6845577E+000	1,062782724075824E-001	1,000000000000000E+000	1,1834087E-001	40	3,9158843E-004
2	1	0	1	0	5,175442683457310E+003	3,8146281E+000	3,8145061E+000	1,014076325583701E-001	1,000000000000000E+000	1,8684569E-001	40	3,8682003E-004
2	1	0	1	0	5,825184375590776E+003	3,9445763E+000	3,9444859E+000	8,631255391621795E-002	1,000000000000000E+000	2,4824485E-001	40	3,4045865E-004
2	1	0	1	0	6,474926267724208E+003	4,0745244E+000	4,0744209E+000	7,227396854168644E-002	1,000000000000000E+000	2,9953778E-001	40	2,9447456E-004
2	1	0	1	0	7,124668059857679E+003	4,2044721E+000	4,2042918E+000	6,340788220897098E-002	1,000000000000000E+000	3,4340012E-001	40	2,6658524E-004
2	1	0	1	1	7,757415752196888E+003	4,2688460E+000	4,2686105E+000	4,559057069022043E-002	2,000000000000000E+000	3,8086328E-001	41	1,9460839E-004
2	1	0	1	1	8,407148244330412E+003	4,1388984E+000	4,1387072E+000	2,420318623073270E-002	2,000000000000000E+000	4,0219745E-001	41	1,0016990E-004
2	1	0	1	1	9,056882036463954E+003	4,0089498E+000	4,0087662E+000	1,402404190964196E-002	2,000000000000000E+000	4,1406947E-001	41	5,6219105E-005
2	1	0	1	1	9,706619728597492E+003	3,8790026E+000	3,8788037E+000	8,448789697212980E-003	2,000000000000000E+000	4,2116579E-001	41	3,2771197E-005
2	1	0	1	1	1,035635802073099E+004	3,7490549E+000	3,7487972E+000	4,713893030856085E-003	2,000000000000000E+000	4,2530295E-001	42	1,7671429E-005
2	1	0	1	1	1,100609471286447E+004	3,6191070E+000	3,6189067E+000	1,385071402217620E-003	2,000000000000000E+000	4,2722839E-001	42	5,0124440E-006
2	0	0	1	1	1,165683150498586E+004	3,4889586E+000	3,4887793E+000	-3,741723978360752E-003	2,000000000000000E+000	4,2659095E-001	42	-1,3054049E-005
2	0	0	1	1	1,230656979711936E+004	3,3590107E+000	3,3588161E+000	-3,336935491049845E-002	2,000000000000000E+000	4,1851270E-001	41	-1,1208153E-004
2	0	0	1	1	1,295630688925291E+004	3,2290626E+000	3,2289462E+000	-8,581164675666275E-002	2,000000000000000E+000	3,7532234E-001	41	-2,7708118E-004
2	0	0	1	1	1,360604478138637E+004	3,0991142E+000	3,0989873E+000	-8,830484556646190E-002	2,000000000000000E+000	3,1772324E-001	41	-2,7365561E-004
2	0	0	1	1	1,425578147351989E+004	2,9691668E+000	2,9690309E+000	-8,168540369408550E-002	2,000000000000000E+000	2,6227000E-001	41	-2,4252648E-004
2	0	0	1	1	1,490551976565341E+004	2,8392184E+000	2,8390384E+000	-7,283376903989644E-002	2,000000000000000E+000	2,1192467E-001	41	-2,0677787E-004
2	0	0	1	1	1,553726925800470E+004	2,8869994E+000	2,8867865E+000	-3,521866720090486E-002	2,000000000000000E+000	1,7666957E-001	41	-1,0166877E-004
2	0	0	1	1	1,618701115013810E+004	3,0169477E+000	3,0167191E+000	-1,556021135876023E-002	2,000000000000000E+000	1,6111887E-001	41	-4,6940786E-005
2	0	0	1	1	1,683675214227158E+004	3,1468954E+000	3,1466799E+000	-5,771769492751627E-003	2,000000000000000E+000	1,5456349E-001	41	-1,8161911E-005
2	1	0	1	1	1,748649403440503E+004	3,2768435E+000	3,2765911E+000	7,858122130111381E-005	2,000000000000000E+000	1,5286516E-001	44	2,5747852E-007
2	1	0	1	1	1,813623472653850E+004	3,4067914E+000	3,4065218E+000	7,597715415489287E-003	2,000000000000000E+000	1,5506586E-001	42	2,5881784E-005
2	1	0	1	1	1,878597661867194E+004	3,5367393E+000	3,5364439E+000	5,498540644515892E-002	2,000000000000000E+000	1,7081679E-001	41	1,9445280E-004
2	1	0	1	1	1,943571761080541E+004	3,6666870E+000	3,6664503E+000	1,026326517659328E-001	2,000000000000000E+000	2,2599602E-001	40	3,7629751E-004
2	1	0	1	1	2,008545950293884E+004	3,7966356E+000	3,7964380E+000	9,261005661596755E-002	2,000000000000000E+000	2,9123393E-001	40	3,5158833E-004
2	1	0	1	1	2,073520019507234E+004	3,9265835E+000	3,9264185E+000	6,817761960065338E-002	2,000000000000000E+000	3,4343722E-001	40	2,6769386E-004
2	1	0	1	1	2,138494258720579E+004	4,0565310E+000	4,0563159E+000	4,936336874162339E-002	2,000000000000000E+000	3,8124886E-001	40	2,0023342E-004
2	1	0	1	1	2,203468367933922E+004	4,1864791E+000	4,1863122E+000	3,784136043751918E-002	2,000000000000000E+000	4,0917835E-001	41	1,5841574E-004
2	1	0	1	0	2,266743127167842E+004	4,2868395E+000	4,2866302E+000	2,845689046636546E-002	3,000000000000000E+000	4,3150774E-001	41	1,2198417E-004
2	1	0	1	0	2,331716596381196E+004	4,1568913E+000	4,1567140E+000	1,284198450423937E-002	3,000000000000000E+000	4,4359660E-001	41	5,3380456E-005
2	1	0	1	0	2,396690065594550E+004	4,0269432E+000	4,0267930E+000	7,261180671110867E-003	3,000000000000000E+000	4,4987679E-001	41	2,9239272E-005
2	1	0	1	0	2,461663644807902E+004	3,8969955E+000	3,8967481E+000	4,039725417824949E-003	3,000000000000000E+000	4,5344871E-001	42	1,5741793E-005
2	1	0	1	0	2,526637404021254E+004	3,7670476E+000	3,7668524E+000	1,917757129012973E-003	3,000000000000000E+000	4,5529416E-001	42	7,2239081E-006
2	1	0	1	0	2,591611183234601E+004	3,6370990E+000	3,6369188E+000	5,453978092621778E-006	3,000000000000000E+000	4,5587534E-001	44	1,9835676E-008
2	0	0	1	0	2,656584942447951E+004	3,5071511E+000	3,5069978E+000	-3,399065907743403E-003	3,000000000000000E+000	4,5486170E-001	42	-1,1920517E-005
2	0	0	1	0	2,721558631661304E+004	3,3772032E+000	3,3770044E+000	-1,910536970790738E-002	3,000000000000000E+000	4,4939184E-001	41	-6,4518914E-005
2	0	0	1	0	2,786532400874652E+004	3,2472556E+000	3,2471108E+000	-7,283235461016480E-002	3,000000000000000E+000	4,1722432E-001	41	-2,3649473E-004
2	0	0	1	0	2,851506170088006E+004	3,1173072E+000	3,1171932E+000	-8,247653214806805E-002	3,000000000000000E+000	3,6530036E-001	41	-2,5709529E-004
2	0	0	1	0	2,916479939301353E+004	2,9873593E+000	2,9872165E+000	-7,825119211406761E-002	3,000000000000000E+000	3,1281930E-001	41	-2,3375325E-004
2	0	0	1	0	2,981453628514707E+004	2,8574111E+000	2,8572824E+000	-7,142696058352072E-002	3,000000000000000E+000	2,6403004E-001	41	-2,0408700E-004
2	0	0	1	0	3,044728587748623E+004	2,8690066E+000	2,8688321E+000	-3,971532386975771E-002	3,000000000000000E+000	2,2632018E-001	41	-1,1393660E-004
2	0	0	1	0	3,109702716961967E+004	2,9989548E+000	2,9987309E+000	-1,811168931774435E-002	3,000000000000000E+000	2,0857790E-001	41	-5,4312084E-005
2	0	0	1	0	3,174676836175320E+004	3,1289027E+000	3,1287222E+000	-7,689862251832089E-003	3,000000000000000E+000	2,0057796E-001	41	-2,4059442E-005
2	0	0	1	0	3,239650985388659E+004	3,2588508E+000	3,2586682E+000	-1,496330408811516E-003	3,000000000000000E+000	1,9775453E-001	42	-4,8760444E-006
2	1	0	1	0	3,304625134990737E+004	3,3887985E+000	3,3885531E+000	5,197107044576738E-003	3,000000000000000E+000	1,9877727E-001	42	1,7610673E-005
2	1	0	1	0	3,369599255111767E+004	3,5187471E+000	3,5184929E+000	3,769910424374323E-002	3,000000000000000E+000	2,0908295E-001	41	1,3264403E-004
2	1	0	1	0	3,434573385232774E+004	3,6486948E+000	3,6484051E+000	9,153170635050922E-002	3,000000000000000E+000	2,5358021E-001	41	3,3394474E-004
2	1	0	1	0	3,499547535353794E+004	3,7786422E+000	3,7783906E+000	9,018455670164838E-002	3,000000000000000E+000	3,1501618E-001	41	3,4075248E-004
2	1	0	1	0	3,564521675474825E+004	3,9085908E+000	3,9083207E+000	6,822081529798352E-002	3,000000000000000E+000	3,6663181E-001	41	2,6662883E-004
2	1	0	1	0	3,629495925595844E+004	4,0385380E+000	4,0383391E+000	4,872454865437537E-002	3,000000000000000E+000	4,0435115E-001	41	1,9676625E-004
2	1	0	1	0	3,694469995716872E+004	4,1684861E+000	4,1682777E+000	3,539901589063245E-002	3,000000000000000E+000	4,3138126E-001	41	1,4755293E-004
2	1	0	1	0	3,759444085837895E+004	4,2984347E+000	4,2982807E+000	3,017285466462389E-002	3,000000000000000E+000	4,5220551E-001	41	1,2969140E-004
2	1	0	1	1	3,822718275955750E+004	4,1748834E+000	4,1747594E+000	1,138987264635638E-002	3,000000000000000E+000	4,6320054E-001	41	4,7549976E-005
2	1	0	1	1	3,887691626076773E+004	4,0449362E+000	4,0447412E+000	5,802820790287148E-003	3,000000000000000E+000	4,6851328E-001	41	2,3470908E-005
2	1	0	1	1	3,952665396197792E+004	3,9149880E+000	3,9148283E+000	2,755713831764477E-003	3,000000000000000E+000	4,7114903E-001	42	1,0788147E-005
2	1	0	1	1	4,017639106318820E+004	3,7850399E+000	3,7848532E+000	9,581820112672407E-004	3,000000000000000E+000	4,7225922E-001	42	3,6265783E-006
2	0	0	1	1	4,082712756440032E+004	3,6548922E+000	3,6547248E+000	-4,838180890378402E-004	3,000000000000000E+000	4,7239271E-001	43	-1,7682220E-006
2	0	0	1	1	4,147686586561054E+004	3,5249441E+000	3,5248055E+000	-3,012790481990595E-003	3,000000000000000E+000	4,7132775E-001	42	-1,0619500E-005
2	0	0	1	1	4,212660296682082E+004	3,3949962E+000	3,3947873E+000	-1,277231585634900E-002	3,000000000000000E+000	4,6713433E-001	41	-4,3359294E-005
2	0	0	1	1	4,277634126803093E+004	3,2650480E+000	3,2649095E+000	-6,328692088251175E-002	3,000000000000000E+000	4,4242254E-001	41	-2,0662606E-004
2	0	0	1	1	4,342607756924123E+004	3,1351001E+000	3,1350005E+000	-7,879306987830403E-002	3,000000000000000E+000	3,9453453E-001	41	-2,4701632E-004
2	0	0	1	1	4,407581577045150E+004	3,0051522E+000	3,0050104E+000	-7,670180980194141E-002	3,000000000000000E+000	3,4365565E-001	41	-2,3048974E-004
2	0	0	1	1	4,472555297166167E+004	2,8752041E+000	2,8750758E+000	-7,047107847942555E-002	3,000000000000000E+000	2,9579526E-001	41	-2,0260969E-004
2	0	0	0	1	4,520313917255122E+004	2,7795434E+000	2,7794337E+000	-6,546068919433964E-002	3,000000000000000E+000	2,6329145E-001	41	-1,8194364E-004