File: Dati/201009/CV_CNTmultiwalled_1_4_12layer_04_CV_C03.mpt
EC-Lab ASCII FILE
Nb header lines : 57

Cyclic Voltammetry

Run on channel : 3 (SN 6807)
User :
Electrode connection : standard
Ewe ctrl range : min = -5,00 V, max = 5,00 V
Ewe,I filtering : 50 kHz
Safety Limits :
	Do not start on E overload
Channel : Grounded
Acquisition started on : 10/09/2020 18:33:11
Saved on :
	File : CV_CNTmultiwalled_1_4_12layer_04_CV_C03.mpr
	Directory : C:\Users\labsuperfici\Desktop\Biologic\Users\Prisca Viviani\201009\
	Host : 10.78.33.0
Device : VSP-300 (SN 0638)
Address : USB
EC-Lab for windows v11.31 (software)
Internet server v11.30 (firmware)
Command interpretor v11.31 (firmware)
Electrode material :
Initial state :
Electrolyte :
Comments :
Cable : standard
Reference electrode : SCE Saturated Calomel Electrode (0,241 V)
Electrode surface area : 0,001 cm²
Characteristic mass : 0,001 g
Equivalent Weight : 0,000 g/eq.
Density : 0,000 g/cm3
Cycle Definition : Charge/Discharge alternance
Ei (V)              0,000
vs.                 Eoc
dE/dt               5,000
dE/dt unit          mV/s
E1 (V)              2,800
vs.                 Ref
Step percent        50
N                   10
E range min (V)     -5,000
E range max (V)     5,000
I Range             Auto
I Range min         Unset
I Range max         Unset
I Range init        Unset
Bandwidth           8
E2 (V)              4,300
vs.                 Ref
nc cycles           2
Reverse Scan        1
Ef (V)              0,000
vs.                 Eoc

mode	ox/red	error	control changes	counter inc.	time/s	control/V	Ewe/V	<I>/mA	cycle number	(Q-Qo)/C	I Range	P/W
2	0	0	1	0	7,232609980425204E+004	2,7799432E+000	2,7797923E+000	-2,344700396060944E-001	1,000000000000000E+000	0,0000000E+000	40	-6,5177801E-004
2	0	0	1	0	7,235151029827097E+004	2,9069915E+000	2,9068146E+000	-1,382429034871737E-001	1,000000000000000E+000	-4,4531971E-003	40	-4,0184648E-004
2	0	0	1	0	7,237749989209590E+004	3,0369394E+000	3,0367382E+000	-8,135669592920014E-002	1,000000000000000E+000	-7,2754859E-003	40	-2,4705898E-004
2	0	0	1	0	7,240348948597279E+004	3,1668870E+000	3,1667695E+000	-3,589015113561464E-002	1,000000000000000E+000	-8,7778112E-003	41	-1,1365583E-004
2	1	0	1	0	7,242951907979324E+004	3,2970352E+000	3,2968514E+000	3,106272759585258E-003	1,000000000000000E+000	-9,1937780E-003	42	1,0240919E-005
2	1	0	1	0	7,245550867366773E+004	3,4269831E+000	3,4268217E+000	4,330871233563505E-002	1,000000000000000E+000	-8,6034872E-003	41	1,4841123E-004
2	1	0	1	0	7,248149826749903E+004	3,5569315E+000	3,5568278E+000	1,031138350307377E-001	1,000000000000000E+000	-6,7755654E-003	40	3,6675815E-004
2	1	0	1	0	7,250748786137067E+004	3,6868789E+000	3,6867747E+000	2,064474570609658E-001	1,000000000000000E+000	-2,8316400E-003	40	7,6112529E-004
2	1	0	1	0	7,253347745520592E+004	3,8168271E+000	3,8166497E+000	3,265833584909197E-001	1,000000000000000E+000	4,0938999E-003	40	1,2464543E-003
2	1	0	1	0	7,255946704907308E+004	3,9467750E+000	3,9466276E+000	4,359757717504067E-001	1,000000000000000E+000	1,4061065E-002	40	1,7206341E-003
2	1	0	1	0	7,258545664291200E+004	4,0767226E+000	4,0765548E+000	5,246155432088706E-001	1,000000000000000E+000	2,6624130E-002	40	2,1386240E-003
2	1	0	1	0	7,261144623677671E+004	4,2066708E+000	4,2064519E+000	5,795771046669707E-001	1,000000000000000E+000	4,1096270E-002	40	2,4379632E-003
2	1	0	1	1	7,263671653079009E+004	4,2668471E+000	4,2666073E+000	5,057033728872469E-001	2,000000000000000E+000	5,5586819E-002	40	2,1576376E-003
2	1	0	1	1	7,266270622464921E+004	4,1368980E+000	4,1366844E+000	3,062264387385256E-001	2,000000000000000E+000	6,5903045E-002	40	1,2667621E-003
2	1	0	1	1	7,268869581849634E+004	4,0069509E+000	4,0067272E+000	1,849390769552448E-001	2,000000000000000E+000	7,2164312E-002	40	7,4100046E-004
2	1	0	1	1	7,271468541235104E+004	3,8770032E+000	3,8767908E+000	1,088806462880999E-001	2,000000000000000E+000	7,5907439E-002	40	4,2210749E-004
2	1	0	1	1	7,274067500620219E+004	3,7470548E+000	3,7468278E+000	5,752336087106047E-002	2,000000000000000E+000	7,8025632E-002	40	2,1553013E-004
2	1	0	1	1	7,276666460005456E+004	3,6171069E+000	3,6168730E+000	1,934724720440506E-002	2,000000000000000E+000	7,9004891E-002	41	6,9976537E-005
2	0	0	1	1	7,279265419390798E+004	3,4871593E+000	3,4869664E+000	-1,621936822302456E-002	2,000000000000000E+000	7,9047918E-002	41	-5,6556393E-005
2	0	0	1	1	7,281864378775796E+004	3,3572111E+000	3,3570650E+000	-6,312269867205866E-002	2,000000000000000E+000	7,8064285E-002	41	-2,1190700E-004
2	0	0	1	1	7,284463338161545E+004	3,2272630E+000	3,2270436E+000	-1,455332356858942E-001	2,000000000000000E+000	7,5442530E-002	40	-4,6964211E-004
2	0	0	1	1	7,287062297546072E+004	3,0973153E+000	3,0971360E+000	-2,441922020079677E-001	2,000000000000000E+000	7,0359610E-002	40	-7,5629645E-004
2	0	0	1	1	7,289661256932234E+004	2,9673674E+000	2,9671676E+000	-3,311464291993200E-001	2,000000000000000E+000	6,2837243E-002	40	-9,8256697E-004
2	0	0	1	1	7,292260216316517E+004	2,8374195E+000	2,8372419E+000	-3,989428625625155E-001	2,000000000000000E+000	5,3277176E-002	40	-1,1318974E-003
2	0	0	1	1	7,294791275719006E+004	2,8889980E+000	2,8887689E+000	-3,078718417984700E-001	2,000000000000000E+000	4,3839030E-002	40	-8,8937063E-004
2	0	0	1	1	7,297390235102712E+004	3,0189462E+000	3,0187335E+000	-1,957482947345559E-001	2,000000000000000E+000	3,7362114E-002	40	-5,9091195E-004
2	0	0	1	1	7,299989194489643E+004	3,1488943E+000	3,1486845E+000	-1,100322564129286E-001	2,000000000000000E+000	3,3436801E-002	40	-3,4645686E-004
2	0	0	1	1	7,302592153872096E+004	3,2790422E+000	3,2788594E+000	-4,026434923753171E-002	2,000000000000000E+000	3,1507473E-002	41	-1,3202114E-004
2	1	0	1	1	7,305195113258320E+004	3,4091902E+000	3,4089930E+000	2,358197507564114E-002	2,000000000000000E+000	3,1289142E-002	41	8,0390790E-005
2	1	0	1	1	7,307794072641502E+004	3,5391381E+000	3,5388553E+000	9,942795396266302E-002	2,000000000000000E+000	3,2840841E-002	41	3,5186115E-004
2	1	0	1	1	7,310393032029091E+004	3,6690860E+000	3,6688275E+000	2,073250811980039E-001	2,000000000000000E+000	3,6757428E-002	40	7,6063996E-004
2	1	0	1	1	7,312991991411801E+004	3,7990341E+000	3,7987845E+000	3,265092736005362E-001	2,000000000000000E+000	4,3711867E-002	40	1,2403383E-003
2	1	0	1	1	7,315590950799757E+004	3,9289818E+000	3,9287307E+000	4,125876760591010E-001	2,000000000000000E+000	5,3422734E-002	40	1,6209459E-003
2	1	0	1	1	7,318189920182165E+004	4,0589304E+000	4,0586634E+000	4,455683198457514E-001	2,000000000000000E+000	6,4731531E-002	40	1,8084118E-003
2	1	0	1	1	7,320788869570324E+004	4,1888776E+000	4,1886668E+000	3,863444441044201E-001	2,000000000000000E+000	7,5717248E-002	40	1,6182682E-003
2	1	0	1	0	7,323351888960926E+004	4,2828403E+000	4,2826300E+000	2,727677186628421E-001	3,000000000000000E+000	8,4506460E-002	40	1,1681633E-003
2	1	0	1	0	7,325950848349574E+004	4,1528926E+000	4,1527262E+000	1,274763294303072E-001	3,000000000000000E+000	8,9348294E-002	40	5,2937429E-004
2	1	0	1	0	7,328549807731120E+004	4,0229445E+000	4,0227504E+000	6,366134249967903E-002	3,000000000000000E+000	9,1745213E-002	40	2,5609368E-004
2	1	0	1	0	7,331148767120158E+004	3,8929968E+000	3,8927820E+000	2,738900957489698E-002	3,000000000000000E+000	9,2888981E-002	41	1,0661945E-004
2	1	0	1	0	7,333751726500643E+004	3,7628491E+000	3,7625861E+000	3,468497983595845E-003	3,000000000000000E+000	9,3268432E-002	42	1,3050522E-005
2	0	0	1	0	7,336350695889874E+004	3,6329007E+000	3,6327052E+000	-1,476428520768380E-002	3,000000000000000E+000	9,3113348E-002	41	-5,3634296E-005
2	0	0	1	0	7,338949645270919E+004	3,5029533E+000	3,5027688E+000	-3,386890912739945E-002	3,000000000000000E+000	9,2489600E-002	41	-1,1863495E-004
2	0	0	0	0	7,341548614660581E+004	3,3730049E+000	3,3728447E+000	-6,475084065642522E-002	3,000000000000000E+000	9,1250360E-002	41	-2,1839453E-004
2	0	0	1	0	7,344147564041195E+004	3,2430570E+000	3,2428579E+000	-1,329029789345535E-001	3,000000000000000E+000	8,8796943E-002	40	-4,3098547E-004
2	0	0	0	0	7,346746533431159E+004	3,1131089E+000	3,1129310E+000	-2,294153261534625E-001	3,000000000000000E+000	8,4101252E-002	40	-7,1415410E-004
2	0	0	1	0	7,349345482811576E+004	2,9831612E+000	2,9829538E+000	-3,134123400840856E-001	3,000000000000000E+000	7,7008016E-002	40	-9,3489455E-004
2	0	0	0	0	7,351944452201523E+004	2,8532128E+000	2,8530264E+000	-3,845030240417655E-001	3,000000000000000E+000	6,7884244E-002	40	-1,0969973E-003
2	0	0	1	0	7,354471511599282E+004	2,8730049E+000	2,8728149E+000	-3,214435788440086E-001	3,000000000000000E+000	5,8353249E-002	40	-9,2344789E-004
2	0	0	1	0	7,357070470988774E+004	3,0029531E+000	3,0027478E+000	-2,068932138239776E-001	3,000000000000000E+000	5,1553369E-002	40	-6,2124815E-004
2	0	0	1	0	7,359669440369855E+004	3,1329012E+000	3,1327009E+000	-1,201231053610297E-001	3,000000000000000E+000	4,7348123E-002	40	-3,7630976E-004
2	0	0	1	0	7,362268389759003E+004	3,2628489E+000	3,2626400E+000	-4,896080659317648E-002	3,000000000000000E+000	4,5178927E-002	40	-1,5974148E-004
2	1	0	1	0	7,364871349139628E+004	3,3929970E+000	3,3927541E+000	1,518401339658748E-002	3,000000000000000E+000	4,4744004E-002	41	5,1515624E-005
2	1	0	1	0	7,367470318528436E+004	3,5229452E+000	3,5226719E+000	8,801003192671963E-002	3,000000000000000E+000	4,6050865E-002	41	3,1003047E-004
2	1	0	1	0	7,370069267910207E+004	3,6528926E+000	3,6526330E+000	1,900349747798145E-001	3,000000000000000E+000	4,9592923E-002	40	6,9412799E-004
2	1	0	1	0	7,372668237298774E+004	3,7828414E+000	3,7825952E+000	3,079189990065192E-001	3,000000000000000E+000	5,6069776E-002	40	1,1647330E-003
2	1	0	1	0	7,375267186680860E+004	3,9127891E+000	3,9125507E+000	4,036590617056008E-001	3,000000000000000E+000	6,5407455E-002	40	1,5793366E-003
2	1	0	1	0	7,377866156069003E+004	4,0427365E+000	4,0425076E+000	4,363514243670727E-001	3,000000000000000E+000	7,6510377E-002	40	1,7639539E-003
2	1	0	1	0	7,380465115451510E+004	4,1726847E+000	4,1724730E+000	3,629477807020072E-001	3,000000000000000E+000	8,7149851E-002	40	1,5143898E-003
2	1	0	1	1	7,383010144852031E+004	4,2999353E+000	4,2997208E+000	2,552603275752530E-001	3,000000000000000E+000	9,4923407E-002	40	1,0975482E-003
2	1	0	1	1	7,385591104239272E+004	4,1708851E+000	4,1707253E+000	8,023889409639484E-002	3,000000000000000E+000	9,8616868E-002	40	3,3465438E-004
2	1	0	1	1	7,388190063626575E+004	4,0409374E+000	4,0407262E+000	2,670529400736421E-002	3,000000000000000E+000	9,9910125E-002	41	1,0790878E-004
2	1	0	1	1	7,390793023009010E+004	3,9107900E+000	3,9106266E+000	2,627423054889963E-004	3,000000000000000E+000	1,0022335E-001	42	1,0274871E-006
2	0	0	1	1	7,393391982395947E+004	3,7808411E+000	3,7806797E+000	-1,530440528296964E-002	3,000000000000000E+000	1,0001060E-001	41	-5,7861056E-005
2	0	0	1	1	7,395990941779665E+004	3,6508934E+000	3,6507103E+000	-2,685015274545725E-002	3,000000000000000E+000	9,9455409E-002	41	-9,8022130E-005
2	0	0	1	1	7,398589901166293E+004	3,5209458E+000	3,5207715E+000	-3,971386653097497E-002	3,000000000000000E+000	9,8597705E-002	41	-1,3982345E-004
2	0	0	1	1	7,401188860550220E+004	3,3909976E+000	3,3908215E+000	-6,333878599149079E-002	3,000000000000000E+000	9,7293377E-002	41	-2,1477051E-004
2	0	0	1	1	7,403787819936592E+004	3,2610495E+000	3,2608578E+000	-1,211990725604593E-001	3,000000000000000E+000	9,5010586E-002	40	-3,9521293E-004
2	0	0	1	1	7,406386789320904E+004	3,1311011E+000	3,1309276E+000	-2,146463332957840E-001	3,000000000000000E+000	9,0658300E-002	40	-6,7204214E-004
2	0	0	1	1	7,408985738706845E+004	3,0011537E+000	3,0009665E+000	-3,017860613921186E-001	3,000000000000000E+000	8,3917074E-002	40	-9,0564985E-004
2	0	0	1	1	7,411584708091524E+004	2,8712053E+000	2,8710279E+000	-3,750793073010201E-001	3,000000000000000E+000	7,5089529E-002	40	-1,0768631E-003
2	0	0	1	1	7,413415097657591E+004	2,7795434E+000	2,7793345E+000	-4,184225994561404E-001	3,000000000000000E+000	6,7812301E-002	40	-1,1629363E-003